Frequency,Channel A
(MHz),(dBu)

0.00000000,-38.70263000
0.00038147,-31.25788000
0.00076294,-20.94927000
0.00114441,-16.65985000
0.00152588,-17.60796000
0.00190735,-23.98782000
0.00228882,-37.88767000
0.00267029,-70.83522000
0.00305176,-69.90964000
0.00343323,-64.09077000
0.00381470,-78.75729000
0.00419617,-73.19357000
0.00457764,-70.12422000
0.00495911,-65.64948000
0.00534058,-65.93557000
0.00572205,-65.66835000
0.00610352,-74.33434000
0.00648499,-64.55833000
0.00686646,-74.33769000
0.00724792,-65.06572000
0.00762939,-58.22260000
0.00801086,-41.52047000
0.00839233,-27.41137000
0.00877380,-19.69041000
0.00915527,-17.22271000
0.00953674,-19.57455000
0.00991821,-27.18483000
0.01029968,-41.40672000
0.01068115,-58.71413000
0.01106262,-61.27489000
0.01144409,-74.12733000
0.01182556,-61.63509000
0.01220703,-66.90042000
0.01258850,-70.30133000
0.01296997,-75.40683000
0.01335144,-68.33729000
0.01373291,-68.60249000
0.01411438,-67.66661000
0.01449585,-68.69973000
0.01487732,-67.98219000
0.01525879,-83.97538000
0.01564026,-74.19093000
0.01602173,-70.82689000
0.01640320,-72.33553000
0.01678467,-68.09886000
0.01716614,-69.00565000
0.01754761,-74.64880000
0.01792908,-81.65897000
0.01831055,-82.95380000
0.01869202,-91.68975000
0.01907349,-75.70184000
0.01945496,-69.02359000
0.01983643,-68.60474000
0.02021790,-74.45642000
0.02059937,-75.66821000
0.02098083,-81.65459000
0.02136230,-73.59018000
0.02174377,-71.80655000
0.02212524,-78.89350000
0.02250671,-75.01825000
0.02288818,-78.61709000
0.02326965,-70.22430000
0.02365112,-65.93123000
0.02403259,-68.66045000
0.02441406,-84.60568000
0.02479553,-76.90908000
0.02517700,-71.88836000
0.02555847,-72.48528000
0.02593994,-90.12708000
0.02632141,-74.07825000
0.02670288,-72.31412000
0.02708435,-72.02145000
0.02746582,-71.93655000
0.02784729,-71.73421000
0.02822876,-71.96149000
0.02861023,-68.71052000
0.02899170,-66.65266000
0.02937317,-69.10592000
0.02975464,-77.84023000
0.03013611,-78.07582000
0.03051758,-70.73170000
0.03089905,-68.86546000
0.03128052,-73.22781000
0.03166199,-82.80769000
0.03204346,-82.22379000
0.03242493,-73.60950000
0.03280640,-71.43333000
0.03318787,-74.08169000
0.03356934,-75.93259000
0.03395081,-72.19299000
0.03433228,-68.87561000
0.03471375,-70.39607000
0.03509521,-82.30986000
0.03547668,-78.12591000
0.03585815,-87.02981000
0.03623962,-72.64275000
0.03662109,-70.98445000
0.03700256,-70.56087000
0.03738403,-73.67589000
0.03776550,-78.26171000
0.03814697,-75.49798000
0.03852844,-73.68537000
0.03890991,-76.08540000
0.03929138,-90.08325000
0.03967285,-75.86805000
0.04005432,-70.59499000
0.04043579,-69.47269000
0.04081726,-68.79066000
0.04119873,-67.83788000
0.04158020,-67.57579000
0.04196167,-69.79277000
0.04234314,-73.95007000
0.04272461,-76.36417000
0.04310608,-72.93100000
0.04348755,-72.53455000
0.04386902,-74.75107000
0.04425049,-73.23427000
0.04463196,-71.70101000
0.04501343,-76.09223000
0.04539490,-73.11626000
0.04577637,-70.32600000
0.04615784,-69.16740000
0.04653931,-68.68062000
0.04692078,-69.02358000
0.04730225,-68.22032000
0.04768372,-68.58436000
0.04806519,-72.77432000
0.04844666,-78.67442000
0.04882813,-81.83804000
0.04920959,-74.88542000
0.04959106,-71.37991000
0.04997253,-71.88973000
0.05035400,-70.98378000
0.05073547,-69.38860000
0.05111694,-72.09074000
0.05149841,-96.64257000
0.05187988,-70.79281000
0.05226135,-66.65285000
0.05264282,-66.09268000
0.05302429,-67.15452000
0.05340576,-69.49902000
0.05378723,-72.89902000
0.05416870,-72.72038000
0.05455017,-70.66001000
0.05493164,-71.08105000
0.05531311,-72.70731000
0.05569458,-73.55550000
0.05607605,-73.18568000
0.05645752,-70.33936000
0.05683899,-69.87956000
0.05722046,-76.63667000
0.05760193,-71.10398000
0.05798340,-67.06474000
0.05836487,-69.92141000
0.05874634,-81.68106000
0.05912781,-72.67997000
0.05950928,-70.66255000
0.05989075,-72.01338000
0.06027222,-72.77624000
0.06065369,-73.20931000
0.06103516,-73.91341000
0.06141663,-74.21767000
0.06179810,-72.62154000
0.06217957,-68.23098000
0.06256104,-66.63860000
0.06294250,-68.98607000
0.06332397,-71.83518000
0.06370544,-69.45565000
0.06408691,-69.94929000
0.06446838,-76.32410000
0.06484985,-72.02083000
0.06523132,-68.12798000
0.06561279,-67.90166000
0.06599426,-70.20219000
0.06637573,-79.64738000
0.06675720,-71.09350000
0.06713867,-66.84464000
0.06752014,-67.14271000
0.06790161,-68.31115000
0.06828308,-69.98567000
0.06866455,-72.28918000
0.06904602,-70.06375000
0.06942749,-67.23402000
0.06980896,-66.12004000
0.07019043,-67.49786000
0.07057190,-72.39862000
0.07095337,-80.16196000
0.07133484,-84.69155000
0.07171631,-79.26308000
0.07209778,-79.02187000
0.07247925,-88.64061000
0.07286072,-80.62298000
0.07324219,-71.94289000
0.07362366,-67.88726000
0.07400513,-67.62775000
0.07438660,-70.25546000
0.07476807,-71.31248000
0.07514954,-72.33504000
0.07553101,-73.07178000
0.07591248,-70.30740000
0.07629395,-67.28029000
0.07667542,-66.60323000
0.07705688,-67.99400000
0.07743835,-70.26285000
0.07781982,-74.76537000
0.07820129,-83.36630000
0.07858276,-74.87853000
0.07896423,-73.58518000
0.07934570,-75.18018000
0.07972717,-68.52172000
0.08010864,-68.18719000
0.08049011,-72.56146000
0.08087158,-72.96256000
0.08125305,-73.45020000
0.08163452,-74.53774000
0.08201599,-90.41088000
0.08239746,-71.49942000
0.08277893,-68.51190000
0.08316040,-70.10123000
0.08354187,-76.52787000
0.08392334,-89.79415000
0.08430481,-74.73830000
0.08468628,-70.98920000
0.08506775,-71.26186000
0.08544922,-73.10357000
0.08583069,-71.82471000
0.08621216,-71.05379000
0.08659363,-72.02042000
0.08697510,-73.35336000
0.08735657,-73.51768000
0.08773804,-74.10889000
0.08811951,-75.13196000
0.08850098,-70.65936000
0.08888245,-68.91660000
0.08926392,-65.94017000
0.08964539,-62.59106000
0.09002686,-63.63400000
0.09040833,-70.72301000
0.09078979,-84.98293000
0.09117126,-80.41253000
0.09155273,-69.86807000
0.09193420,-67.73523000
0.09231567,-70.00253000
0.09269714,-76.69277000
0.09307861,-92.92720000
0.09346008,-86.06773000
0.09384155,-77.37336000
0.09422302,-79.64663000
0.09460449,-82.82146000
0.09498596,-74.83487000
0.09536743,-72.69527000
0.09574890,-69.66231000
0.09613037,-68.19020000
0.09651184,-72.13952000
0.09689331,-84.32259000
0.09727478,-83.43049000
0.09765625,-80.94051000
0.09803772,-74.35561000
0.09841919,-73.86440000
0.09880066,-79.97404000
0.09918213,-82.24529000
0.09956360,-75.40267000
0.09994507,-75.85094000
0.10032654,-74.80933000
0.10070801,-73.34128000
0.10108948,-74.99760000
0.10147095,-76.68923000
0.10185242,-71.98404000
0.10223389,-70.78098000
0.10261536,-73.66817000
0.10299683,-77.87690000
0.10337830,-72.71152000
0.10375977,-69.77809000
0.10414124,-70.27986000
0.10452271,-72.04034000
0.10490417,-72.18965000
0.10528564,-73.95476000
0.10566711,-78.79611000
0.10604858,-77.71204000
0.10643005,-73.49235000
0.10681152,-70.25942000
0.10719299,-68.33694000
0.10757446,-68.76563000
0.10795593,-71.57278000
0.10833740,-78.19216000
0.10871887,-74.20308000
0.10910034,-69.98502000
0.10948181,-69.57627000
0.10986328,-71.27987000
0.11024475,-73.65895000
0.11062622,-73.39221000
0.11100769,-71.56750000
0.11138916,-69.59605000
0.11177063,-68.17284000
0.11215210,-67.37640000
0.11253357,-67.01431000
0.11291504,-67.90056000
0.11329651,-69.23499000
0.11367798,-69.57813000
0.11405945,-68.93848000
0.11444092,-68.51157000
0.11482239,-71.30352000
0.11520386,-74.78255000
0.11558533,-73.88556000
0.11596680,-72.92780000
0.11634827,-77.88113000
0.11672974,-81.66122000
0.11711121,-82.07253000
0.11749268,-82.60171000
0.11787415,-78.37620000
0.11825562,-78.69837000
0.11863708,-76.54769000
0.11901855,-72.04875000
0.11940002,-69.46448000
0.11978149,-70.53178000
0.12016296,-77.29964000
0.12054443,-79.37006000
0.12092590,-73.03088000
0.12130737,-69.96907000
0.12168884,-69.80562000
0.12207031,-72.50230000
0.12245178,-76.87662000
0.12283325,-77.69614000
0.12321472,-81.96872000
0.12359619,-69.59203000
0.12397766,-64.51954000
0.12435913,-64.17189000
0.12474060,-67.45559000
0.12512207,-73.03075000
0.12550354,-75.77957000
0.12588501,-75.91344000
0.12626648,-78.60735000
0.12664795,-84.39377000
0.12702942,-78.66522000
0.12741089,-73.87139000
0.12779236,-69.28013000
0.12817383,-66.86614000
0.12855530,-68.29142000
0.12893677,-72.84408000
0.12931824,-69.60500000
0.12969971,-70.59942000
0.13008118,-70.98833000
0.13046265,-68.60262000
0.13084412,-72.50346000
0.13122559,-93.68988000
0.13160706,-74.91577000
0.13198853,-73.51465000
0.13237000,-74.80963000
0.13275146,-76.51491000
0.13313293,-71.56647000
0.13351440,-70.66400000
0.13389587,-75.78979000
0.13427734,-88.97896000
0.13465881,-76.70796000
0.13504028,-69.52986000
0.13542175,-66.18082000
0.13580322,-64.97230000
0.13618469,-64.64415000
0.13656616,-66.07264000
0.13694763,-70.24173000
0.13732910,-77.28278000
0.13771057,-94.32339000
0.13809204,-74.88603000
0.13847351,-70.62982000
0.13885498,-68.74657000
0.13923645,-67.51306000
0.13961792,-66.97809000
0.13999939,-66.92596000
0.14038086,-68.46589000
0.14076233,-73.46103000
0.14114380,-77.50544000
0.14152527,-72.29008000
0.14190674,-71.43037000
0.14228821,-75.35509000
0.14266968,-87.42929000
0.14305115,-73.03114000
0.14343262,-71.56088000
0.14381409,-84.12271000
0.14419556,-71.44751000
0.14457703,-66.63606000
0.14495850,-67.56575000
0.14533997,-72.28883000
0.14572144,-73.41236000
0.14610291,-74.28967000
0.14648438,-87.00334000
0.14686584,-79.92648000
0.14724731,-78.44376000
0.14762878,-76.48869000
0.14801025,-71.78891000
0.14839172,-74.48697000
0.14877319,-73.15460000
0.14915466,-66.94143000
0.14953613,-67.26804000
0.14991760,-72.26631000
0.15029907,-76.64639000
0.15068054,-76.74340000
0.15106201,-76.17715000
0.15144348,-81.19438000
0.15182495,-100.72490000
0.15220642,-101.70140000
0.15258789,-84.94995000
0.15296936,-72.81656000
0.15335083,-68.20870000
0.15373230,-68.38658000
0.15411377,-70.29804000
0.15449524,-72.04460000
0.15487671,-77.62926000
0.15525818,-89.50336000
0.15563965,-81.82372000
0.15602112,-80.58025000
0.15640259,-75.63603000
0.15678406,-73.26129000
0.15716553,-74.58228000
0.15754700,-82.42859000
0.15792847,-78.66904000
0.15830994,-71.39079000
0.15869141,-70.23537000
0.15907288,-74.67174000
0.15945435,-75.18719000
0.15983582,-70.59307000
0.16021729,-71.26421000
0.16059875,-71.82870000
0.16098022,-71.23215000
0.16136169,-74.73260000
0.16174316,-82.06003000
0.16212463,-71.32993000
0.16250610,-69.93208000
0.16288757,-74.17252000
0.16326904,-81.88412000
0.16365051,-87.57649000
0.16403198,-75.92065000
0.16441345,-73.37074000
0.16479492,-73.00876000
0.16517639,-70.68928000
0.16555786,-68.75911000
0.16593933,-68.84118000
0.16632080,-72.90803000
0.16670227,-73.92269000
0.16708374,-66.97928000
0.16746521,-65.20074000
0.16784668,-67.02457000
0.16822815,-72.78639000
0.16860962,-85.36507000
0.16899109,-79.03710000
0.16937256,-73.04237000
0.16975403,-70.38638000
0.17013550,-70.22000000
0.17051697,-74.45996000
0.17089844,-86.96396000
0.17127991,-73.77436000
0.17166138,-74.93139000
0.17204285,-90.05395000
0.17242432,-73.84236000
0.17280579,-73.98692000
0.17318726,-81.07757000
0.17356873,-80.78742000
0.17395020,-73.66225000
0.17433167,-72.96068000
0.17471313,-73.61773000
0.17509460,-70.22931000
0.17547607,-68.48062000
0.17585754,-67.89872000
0.17623901,-67.13744000
0.17662048,-68.07576000
0.17700195,-71.57594000
0.17738342,-73.04720000
0.17776489,-75.53915000
0.17814636,-76.01233000
0.17852783,-73.86531000
0.17890930,-71.74023000
0.17929077,-69.98361000
0.17967224,-69.88630000
0.18005371,-71.12889000
0.18043518,-70.89381000
0.18081665,-71.51482000
0.18119812,-75.16991000
0.18157959,-73.34384000
0.18196106,-73.66624000
0.18234253,-80.16420000
0.18272400,-74.16873000
0.18310547,-69.17032000
0.18348694,-67.86405000
0.18386841,-68.56255000
0.18424988,-70.25639000
0.18463135,-71.03408000
0.18501282,-70.29527000
0.18539429,-70.74464000
0.18577576,-77.37254000
0.18615723,-72.32529000
0.18653870,-68.49962000
0.18692017,-70.38380000
0.18730164,-73.79530000
0.18768311,-76.71851000
0.18806458,-75.94075000
0.18844604,-73.63620000
0.18882751,-72.82109000
0.18920898,-71.76486000
0.18959045,-70.80504000
0.18997192,-71.95356000
0.19035339,-73.75896000
0.19073486,-72.92417000
0.19111633,-74.22289000
0.19149780,-76.77596000
0.19187927,-73.28011000
0.19226074,-72.28199000
0.19264221,-73.86346000
0.19302368,-74.00031000
0.19340515,-71.75880000
0.19378662,-71.61927000
0.19416809,-76.16479000
0.19454956,-78.97420000
0.19493103,-76.23201000
0.19531250,-75.62820000
0.19569397,-74.65018000
0.19607544,-73.74099000
0.19645691,-78.28577000
0.19683838,-83.66642000
0.19721985,-74.93636000
0.19760132,-73.31748000
0.19798279,-73.40930000
0.19836426,-76.74218000
0.19874573,-80.87997000
0.19912720,-77.90457000
0.19950867,-79.69796000
0.19989014,-79.04997000
0.20027161,-75.28506000
0.20065308,-74.35948000
0.20103455,-76.10938000
0.20141602,-80.64801000
0.20179749,-84.11935000
0.20217896,-78.32632000
0.20256042,-72.56000000
0.20294189,-70.60311000
0.20332336,-71.29153000
0.20370483,-72.55535000
0.20408630,-72.98663000
0.20446777,-75.75459000
0.20484924,-84.49901000
0.20523071,-81.63020000
0.20561218,-73.31561000
0.20599365,-72.86612000
0.20637512,-78.76403000
0.20675659,-84.91639000
0.20713806,-81.54214000
0.20751953,-75.28650000
0.20790100,-70.72840000
0.20828247,-70.34883000
0.20866394,-72.29677000
0.20904541,-72.32751000
0.20942688,-70.03560000
0.20980835,-68.96882000
0.21018982,-70.19286000
0.21057129,-70.93800000
0.21095276,-71.63083000
0.21133423,-76.17124000
0.21171570,-79.61121000
0.21209717,-74.34219000
0.21247864,-74.47206000
0.21286011,-77.54034000
0.21324158,-75.77355000
0.21362305,-72.63451000
0.21400452,-71.27318000
0.21438599,-70.09835000
0.21476746,-71.05789000
0.21514893,-74.68731000
0.21553040,-72.31713000
0.21591187,-70.86146000
0.21629333,-72.50558000
0.21667480,-74.61703000
0.21705627,-75.37113000
0.21743774,-72.48987000
0.21781921,-69.82146000
0.21820068,-69.80800000
0.21858215,-72.60260000
0.21896362,-77.91556000
0.21934509,-78.49654000
0.21972656,-79.44118000
0.22010803,-86.97498000
0.22048950,-76.66154000
0.22087097,-75.29468000
0.22125244,-76.20211000
0.22163391,-74.64787000
0.22201538,-73.80031000
0.22239685,-72.41840000
0.22277832,-70.84621000
0.22315979,-69.30002000
0.22354126,-68.40413000
0.22392273,-70.33988000
0.22430420,-76.77660000
0.22468567,-84.91750000
0.22506714,-80.22470000
0.22544861,-77.68867000
0.22583008,-73.94933000
0.22621155,-72.26478000
0.22659302,-72.81871000
0.22697449,-78.38370000
0.22735596,-79.86378000
0.22773743,-72.26735000
0.22811890,-74.99770000
0.22850037,-84.52223000
0.22888184,-71.84682000
0.22926331,-71.38142000
0.22964478,-72.99090000
0.23002625,-72.74709000
0.23040771,-79.07018000
0.23078918,-77.92304000
0.23117065,-70.42954000
0.23155212,-70.81721000
0.23193359,-76.50763000
0.23231506,-92.12421000
0.23269653,-79.28899000
0.23307800,-73.30202000
0.23345947,-72.03195000
0.23384094,-75.48120000
0.23422241,-85.79953000
0.23460388,-76.73970000
0.23498535,-78.24125000
0.23536682,-98.55887000
0.23574829,-84.58424000
0.23612976,-85.15945000
0.23651123,-76.93607000
0.23689270,-76.51471000
0.23727417,-78.33279000
0.23765564,-76.66055000
0.23803711,-73.42249000
0.23841858,-72.42686000
0.23880005,-73.97832000
0.23918152,-82.46268000
0.23956299,-74.04231000
0.23994446,-66.27940000
0.24032593,-64.90549000
0.24070740,-68.10773000
0.24108887,-79.34480000
0.24147034,-82.34376000
0.24185181,-80.99709000
0.24223328,-81.66821000
0.24261475,-80.82938000
0.24299622,-77.47041000
0.24337769,-74.38496000
0.24375916,-78.04861000
0.24414063,-79.69478000
0.24452209,-77.11996000
0.24490356,-80.51622000
0.24528503,-82.96863000
0.24566650,-75.68635000
0.24604797,-77.06130000
0.24642944,-87.02012000
0.24681091,-81.55019000
0.24719238,-75.97265000
0.24757385,-74.85736000
0.24795532,-74.12820000
0.24833679,-71.52324000
0.24871826,-72.88253000
0.24909973,-75.29355000
0.24948120,-72.08563000
0.24986267,-72.73567000
0.25024414,-76.82110000
0.25062561,-75.06187000
0.25100708,-70.09586000
0.25138855,-68.27773000
0.25177002,-69.90964000
0.25215149,-77.83515000
0.25253296,-78.60165000
0.25291443,-72.48424000
0.25329590,-74.74238000
0.25367737,-80.26682000
0.25405884,-74.22496000
0.25444031,-72.93268000
0.25482178,-75.93416000
0.25520325,-78.67232000
0.25558472,-82.56992000
0.25596619,-74.55952000
0.25634766,-74.25398000
0.25672913,-80.09415000
0.25711060,-94.46937000
0.25749207,-89.72279000
0.25787354,-83.72399000
0.25825500,-81.36959000
0.25863647,-84.52637000
0.25901794,-97.12421000
0.25939941,-86.57182000
0.25978088,-82.33300000
0.26016235,-80.34153000
0.26054382,-72.38591000
0.26092529,-70.26819000
0.26130676,-73.81236000
0.26168823,-85.43298000
0.26206970,-84.07478000
0.26245117,-80.58788000
0.26283264,-74.93050000
0.26321411,-73.95866000
0.26359558,-74.03596000
0.26397705,-71.82352000
0.26435852,-70.57582000
0.26473999,-75.41820000
0.26512146,-79.34379000
0.26550293,-71.76485000
0.26588440,-72.34882000
0.26626587,-81.44983000
0.26664734,-79.64245000
0.26702881,-72.24709000
0.26741028,-70.49249000
0.26779175,-72.87227000
0.26817322,-77.49978000
0.26855469,-72.45928000
0.26893616,-70.93983000
0.26931763,-76.77452000
0.26969910,-80.52413000
0.27008057,-73.80834000
0.27046204,-75.95555000
0.27084351,-79.87823000
0.27122498,-82.39136000
0.27160645,-92.08490000
0.27198792,-81.75233000
0.27236938,-78.13304000
0.27275085,-75.35396000
0.27313232,-72.18739000
0.27351379,-70.82716000
0.27389526,-72.87825000
0.27427673,-76.56172000
0.27465820,-77.34541000
0.27503967,-78.98208000
0.27542114,-76.56262000
0.27580261,-71.99374000
0.27618408,-70.36930000
0.27656555,-70.75859000
0.27694702,-71.93368000
0.27732849,-72.00532000
0.27770996,-72.35915000
0.27809143,-73.60503000
0.27847290,-72.37089000
0.27885437,-70.83203000
0.27923584,-71.23705000
0.27961731,-74.13782000
0.27999878,-78.46307000
0.28038025,-81.64693000
0.28076172,-81.86530000
0.28114319,-75.60513000
0.28152466,-70.72037000
0.28190613,-71.16800000
0.28228760,-76.22659000
0.28266907,-76.01114000
0.28305054,-76.80273000
0.28343201,-85.05304000
0.28381348,-76.84950000
0.28419495,-70.67503000
0.28457642,-68.66419000
0.28495789,-69.65652000
0.28533936,-72.92029000
0.28572083,-76.12877000
0.28610229,-77.59444000
0.28648376,-77.82561000
0.28686523,-82.39152000
0.28724670,-76.57330000
0.28762817,-70.73840000
0.28800964,-71.80292000
0.28839111,-77.22504000
0.28877258,-79.71373000
0.28915405,-76.29764000
0.28953552,-71.64796000
0.28991699,-69.17813000
0.29029846,-68.55281000
0.29067993,-70.43721000
0.29106140,-74.44709000
0.29144287,-73.11713000
0.29182434,-73.07925000
0.29220581,-76.50404000
0.29258728,-72.69835000
0.29296875,-70.66834000
0.29335022,-72.63380000
0.29373169,-76.94881000
0.29411316,-69.68965000
0.29449463,-67.43970000
0.29487610,-69.50921000
0.29525757,-75.48259000
0.29563904,-73.73633000
0.29602051,-71.04997000
0.29640198,-73.91722000
0.29678345,-76.19630000
0.29716492,-71.06040000
0.29754639,-69.39765000
0.29792786,-73.36003000
0.29830933,-76.83272000
0.29869080,-73.13392000
0.29907227,-75.71069000
0.29945374,-82.99820000
0.29983521,-77.03587000
0.30021667,-71.29929000
0.30059814,-69.63818000
0.30097961,-72.29298000
0.30136108,-80.40687000
0.30174255,-89.76183000
0.30212402,-80.27818000
0.30250549,-74.63625000
0.30288696,-70.98281000
0.30326843,-69.62083000
0.30364990,-70.61285000
0.30403137,-73.09828000
0.30441284,-80.52421000
0.30479431,-85.77936000
0.30517578,-76.85134000
0.30555725,-72.12512000
0.30593872,-70.30794000
0.30632019,-69.33102000
0.30670166,-68.98634000
0.30708313,-70.11913000
0.30746460,-72.51265000
0.30784607,-73.93058000
0.30822754,-75.58549000
0.30860901,-79.02814000
0.30899048,-87.97314000
0.30937195,-75.44127000
0.30975342,-72.28458000
0.31013489,-76.89880000
0.31051636,-80.07012000
0.31089783,-76.22114000
0.31127930,-74.81344000
0.31166077,-76.72678000
0.31204224,-85.28778000
0.31242371,-88.39996000
0.31280518,-79.93194000
0.31318665,-77.72818000
0.31356812,-78.16057000
0.31394958,-75.60412000
0.31433105,-73.87218000
0.31471252,-72.77017000
0.31509399,-72.95869000
0.31547546,-76.17278000
0.31585693,-80.73650000
0.31623840,-77.54268000
0.31661987,-74.67757000
0.31700134,-79.68360000
0.31738281,-84.50517000
0.31776428,-75.99961000
0.31814575,-76.45593000
0.31852722,-78.65627000
0.31890869,-81.09555000
0.31929016,-74.61357000
0.31967163,-66.98232000
0.32005310,-65.12473000
0.32043457,-66.38612000
0.32081604,-68.93882000
0.32119751,-75.69438000
0.32157898,-89.06412000
0.32196045,-77.25422000
0.32234192,-75.57098000
0.32272339,-75.16222000
0.32310486,-74.97235000
0.32348633,-75.28758000
0.32386780,-77.23138000
0.32424927,-78.27485000
0.32463074,-74.28910000
0.32501221,-74.79055000
0.32539368,-75.54532000
0.32577515,-75.98763000
0.32615662,-84.20795000
0.32653809,-100.51490000
0.32691956,-77.19875000
0.32730103,-69.74988000
0.32768250,-68.59452000
0.32806396,-70.71905000
0.32844543,-72.11739000
0.32882690,-71.43204000
0.32920837,-74.01382000
0.32958984,-79.15199000
0.32997131,-72.45042000
0.33035278,-72.81657000
0.33073425,-75.76126000
0.33111572,-73.43275000
0.33149719,-73.92109000
0.33187866,-79.14876000
0.33226013,-83.02746000
0.33264160,-76.22439000
0.33302307,-73.20433000
0.33340454,-72.52974000
0.33378601,-72.73625000
0.33416748,-73.17006000
0.33454895,-73.66402000
0.33493042,-74.17864000
0.33531189,-73.13092000
0.33569336,-72.04967000
0.33607483,-74.92074000
0.33645630,-81.37051000
0.33683777,-77.27888000
0.33721924,-73.61330000
0.33760071,-70.79987000
0.33798218,-70.28703000
0.33836365,-71.41663000
0.33874512,-70.47111000
0.33912659,-72.92104000
0.33950806,-77.89349000
0.33988953,-74.30882000
0.34027100,-70.29967000
0.34065247,-69.45135000
0.34103394,-71.07426000
0.34141541,-72.53058000
0.34179688,-73.69141000
0.34217834,-74.68927000
0.34255981,-74.71696000
0.34294128,-76.79968000
0.34332275,-73.23490000
0.34370422,-70.41928000
0.34408569,-70.44954000
0.34446716,-70.54185000
0.34484863,-70.96307000
0.34523010,-72.69728000
0.34561157,-73.28462000
0.34599304,-70.72137000
0.34637451,-69.37121000
0.34675598,-73.38638000
0.34713745,-87.65524000
0.34751892,-72.83710000
0.34790039,-71.74867000
0.34828186,-73.75748000
0.34866333,-71.88239000
0.34904480,-70.49456000
0.34942627,-74.93578000
0.34980774,-81.15820000
0.35018921,-70.14280000
0.35057068,-69.28062000
0.35095215,-73.05081000
0.35133362,-76.91957000
0.35171509,-73.28820000
0.35209656,-70.68738000
0.35247803,-71.31168000
0.35285950,-75.06100000
0.35324097,-78.30258000
0.35362244,-74.21095000
0.35400391,-74.57257000
0.35438538,-75.89014000
0.35476685,-77.51494000
0.35514832,-77.65919000
0.35552979,-77.51004000
0.35591125,-84.10736000
0.35629272,-72.25024000
0.35667419,-70.73763000
0.35705566,-73.36917000
0.35743713,-76.14115000
0.35781860,-80.08071000
0.35820007,-77.94503000
0.35858154,-75.00614000
0.35896301,-71.87248000
0.35934448,-69.11549000
0.35972595,-69.26694000
0.36010742,-71.89033000
0.36048889,-70.95831000
0.36087036,-69.72540000
0.36125183,-71.34419000
0.36163330,-74.87143000
0.36201477,-79.59717000
0.36239624,-87.15358000
0.36277771,-77.33934000
0.36315918,-77.55006000
0.36354065,-85.70770000
0.36392212,-92.23631000
0.36430359,-85.04866000
0.36468506,-79.68077000
0.36506653,-79.10950000
0.36544800,-77.24986000
0.36582947,-75.81486000
0.36621094,-73.78831000
0.36659241,-70.72473000
0.36697388,-72.19176000
0.36735535,-78.05909000
0.36773682,-77.86614000
0.36811829,-73.65173000
0.36849976,-74.36895000
0.36888123,-76.30746000
0.36926270,-73.89935000
0.36964417,-71.78364000
0.37002563,-72.03655000
0.37040710,-74.67529000
0.37078857,-82.43611000
0.37117004,-78.95080000
0.37155151,-73.82422000
0.37193298,-75.07363000
0.37231445,-87.75264000
0.37269592,-83.88576000
0.37307739,-79.54845000
0.37345886,-78.40970000
0.37384033,-81.55335000
0.37422180,-79.17291000
0.37460327,-79.51562000
0.37498474,-86.82057000
0.37536621,-83.40272000
0.37574768,-79.01956000
0.37612915,-79.42513000
0.37651062,-85.98372000
0.37689209,-80.88589000
0.37727356,-73.42477000
0.37765503,-70.33902000
0.37803650,-70.90354000
0.37841797,-76.24281000
0.37879944,-82.73654000
0.37918091,-78.59185000
0.37956238,-72.58015000
0.37994385,-70.54052000
0.38032532,-72.44235000
0.38070679,-73.87039000
0.38108826,-74.44214000
0.38146973,-77.85580000
0.38185120,-76.68114000
0.38223267,-75.29119000
0.38261414,-74.08983000
0.38299561,-73.13127000
0.38337708,-75.09436000
0.38375854,-77.80438000
0.38414001,-77.34262000
0.38452148,-74.82611000
0.38490295,-72.07651000
0.38528442,-70.97543000
0.38566589,-70.68116000
0.38604736,-72.20119000
0.38642883,-75.10122000
0.38681030,-74.45525000
0.38719177,-75.99078000
0.38757324,-78.12835000
0.38795471,-78.70033000
0.38833618,-82.21717000
0.38871765,-77.01304000
0.38909912,-71.88587000
0.38948059,-71.72302000
0.38986206,-73.45261000
0.39024353,-73.67374000
0.39062500,-73.23083000
0.39100647,-71.15910000
0.39138794,-70.17441000
0.39176941,-70.82287000
0.39215088,-74.05481000
0.39253235,-72.77480000
0.39291382,-69.92942000
0.39329529,-70.07664000
0.39367676,-72.11327000
0.39405823,-74.55000000
0.39443970,-76.40681000
0.39482117,-78.72545000
0.39520264,-79.48405000
0.39558411,-74.04549000
0.39596558,-72.74680000
0.39634705,-73.06424000
0.39672852,-73.44833000
0.39710999,-71.05087000
0.39749146,-69.84421000
0.39787292,-73.91890000
0.39825439,-99.41872000
0.39863586,-74.03203000
0.39901733,-72.99544000
0.39939880,-80.53407000
0.39978027,-92.41757000
0.40016174,-80.30756000
0.40054321,-73.77753000
0.40092468,-72.52207000
0.40130615,-73.64948000
0.40168762,-75.59055000
0.40206909,-77.95687000
0.40245056,-83.25776000
0.40283203,-88.02952000
0.40321350,-86.68506000
0.40359497,-78.79380000
0.40397644,-73.20403000
0.40435791,-72.51379000
0.40473938,-72.20984000
0.40512085,-70.85153000
0.40550232,-72.24516000
0.40588379,-76.63982000
0.40626526,-88.39426000
0.40664673,-85.19366000
0.40702820,-78.29955000
0.40740967,-75.94040000
0.40779114,-75.49218000
0.40817261,-75.83727000
0.40855408,-78.11617000
0.40893555,-80.74629000
0.40931702,-73.89181000
0.40969849,-73.05502000
0.41007996,-77.69332000
0.41046143,-77.58656000
0.41084290,-75.77550000
0.41122437,-79.76258000
0.41160583,-77.89978000
0.41198730,-69.64912000
0.41236877,-66.47629000
0.41275024,-65.70689000
0.41313171,-67.71105000
0.41351318,-75.08242000
0.41389465,-82.34883000
0.41427612,-77.30209000
0.41465759,-76.75120000
0.41503906,-74.05433000
0.41542053,-71.01794000
0.41580200,-70.10559000
0.41618347,-72.06544000
0.41656494,-76.49865000
0.41694641,-78.03439000
0.41732788,-76.49979000
0.41770935,-77.34372000
0.41809082,-79.20586000
0.41847229,-88.46320000
0.41885376,-98.93467000
0.41923523,-79.81254000
0.41961670,-75.30480000
0.41999817,-72.48482000
0.42037964,-68.17736000
0.42076111,-67.45792000
0.42114258,-69.70855000
0.42152405,-72.54339000
0.42190552,-74.09407000
0.42228699,-71.15516000
0.42266846,-68.83105000
0.42304993,-69.77119000
0.42343140,-75.95187000
0.42381287,-79.03489000
0.42419434,-73.49099000
0.42457581,-75.40992000
0.42495728,-78.12717000
0.42533875,-74.25674000
0.42572021,-71.63702000
0.42610168,-72.62296000
0.42648315,-79.58090000
0.42686462,-83.64243000
0.42724609,-77.33226000
0.42762756,-78.06686000
0.42800903,-76.65280000
0.42839050,-74.21231000
0.42877197,-73.88655000
0.42915344,-76.21955000
0.42953491,-78.82981000
0.42991638,-74.22825000
0.43029785,-73.30764000
0.43067932,-76.81145000
0.43106079,-78.10975000
0.43144226,-75.05962000
0.43182373,-75.39053000
0.43220520,-83.90952000
0.43258667,-80.83215000
0.43296814,-82.96864000
0.43334961,-82.81295000
0.43373108,-76.66005000
0.43411255,-76.71935000
0.43449402,-81.33969000
0.43487549,-83.23594000
0.43525696,-83.29893000
0.43563843,-84.02901000
0.43601990,-77.53022000
0.43640137,-77.79565000
0.43678284,-77.51649000
0.43716431,-77.89272000
0.43754578,-85.56480000
0.43792725,-73.58320000
0.43830872,-69.10644000
0.43869019,-67.21836000
0.43907166,-67.09632000
0.43945313,-69.71841000
0.43983459,-74.48663000
0.44021606,-73.53444000
0.44059753,-73.16027000
0.44097900,-75.98003000
0.44136047,-74.75257000
0.44174194,-71.14262000
0.44212341,-70.88763000
0.44250488,-73.71210000
0.44288635,-78.18960000
0.44326782,-85.95514000
0.44364929,-80.98632000
0.44403076,-73.54848000
0.44441223,-70.62790000
0.44479370,-69.67048000
0.44517517,-69.15351000
0.44555664,-69.08009000
0.44593811,-71.33379000
0.44631958,-81.72217000
0.44670105,-78.89535000
0.44708252,-75.67393000
0.44746399,-83.20782000
0.44784546,-89.15463000
0.44822693,-77.14317000
0.44860840,-72.02228000
0.44898987,-72.72228000
0.44937134,-76.62499000
0.44975281,-85.95598000
0.45013428,-82.70412000
0.45051575,-74.91441000
0.45089722,-73.87630000
0.45127869,-75.93612000
0.45166016,-77.88047000
0.45204163,-79.26134000
0.45242310,-74.25601000
0.45280457,-71.59220000
0.45318604,-75.84158000
0.45356750,-86.62926000
0.45394897,-77.14275000
0.45433044,-76.92386000
0.45471191,-82.24260000
0.45509338,-78.43944000
0.45547485,-73.87846000
0.45585632,-75.43279000
0.45623779,-73.45659000
0.45661926,-70.90198000
0.45700073,-71.26779000
0.45738220,-72.35110000
0.45776367,-73.10077000
0.45814514,-74.06493000
0.45852661,-77.14393000
0.45890808,-82.70539000
0.45928955,-85.15469000
0.45967102,-86.48479000
0.46005249,-88.59200000
0.46043396,-87.53613000
0.46081543,-93.18893000
0.46119690,-86.82069000
0.46157837,-75.90384000
0.46195984,-70.97104000
0.46234131,-72.85129000
0.46272278,-86.27586000
0.46310425,-86.71345000
0.46348572,-92.80956000
0.46386719,-78.85741000
0.46424866,-78.41857000
0.46463013,-73.43201000
0.46501160,-68.70139000
0.46539307,-67.42043000
0.46577454,-68.36154000
0.46615601,-72.75118000
0.46653748,-85.05435000
0.46691895,-73.02477000
0.46730042,-71.07461000
0.46768188,-72.44433000
0.46806335,-74.41071000
0.46844482,-74.10876000
0.46882629,-75.82095000
0.46920776,-77.71675000
0.46958923,-77.04760000
0.46997070,-75.00204000
0.47035217,-73.51154000
0.47073364,-77.93365000
0.47111511,-79.17931000
0.47149658,-69.93193000
0.47187805,-69.25935000
0.47225952,-71.97253000
0.47264099,-74.20617000
0.47302246,-75.33487000
0.47340393,-79.36465000
0.47378540,-79.33280000
0.47416687,-73.81885000
0.47454834,-75.34007000
0.47492981,-85.17906000
0.47531128,-78.37678000
0.47569275,-77.18880000
0.47607422,-79.79038000
0.47645569,-86.68701000
0.47683716,-82.84466000
0.47721863,-75.55126000
0.47760010,-72.85356000
0.47798157,-72.48167000
0.47836304,-72.42891000
0.47874451,-72.19699000
0.47912598,-70.66287000
0.47950745,-69.97992000
0.47988892,-71.78612000
0.48027039,-74.63756000
0.48065186,-74.51835000
0.48103333,-72.64845000
0.48141479,-73.20390000
0.48179626,-76.99242000
0.48217773,-80.82794000
0.48255920,-79.81029000
0.48294067,-79.80092000
0.48332214,-76.89164000
0.48370361,-74.39914000
0.48408508,-75.87760000
0.48446655,-74.50708000
0.48484802,-71.41183000
0.48522949,-70.16316000
0.48561096,-70.44568000
0.48599243,-73.04816000
0.48637390,-79.96663000
0.48675537,-90.46803000
0.48713684,-78.93903000
0.48751831,-74.31856000
0.48789978,-75.00343000
0.48828125,-83.47105000
0.48866272,-84.37399000
0.48904419,-79.43038000
0.48942566,-78.41838000
0.48980713,-73.48604000
0.49018860,-71.30776000
0.49057007,-73.37594000
0.49095154,-77.79092000
0.49133301,-78.15796000
0.49171448,-77.45560000
0.49209595,-78.84103000
0.49247742,-80.23574000
0.49285889,-79.28147000
0.49324036,-77.41454000
0.49362183,-76.39564000
0.49400330,-75.38403000
0.49438477,-74.36906000
0.49476624,-74.96906000
0.49514771,-80.55937000
0.49552917,-77.83810000
0.49591064,-78.07373000
0.49629211,-83.67500000
0.49667358,-73.51147000
0.49705505,-71.13206000
0.49743652,-78.19827000
0.49781799,-78.65443000
0.49819946,-74.35906000
0.49858093,-82.08366000
0.49896240,-77.40427000
0.49934387,-76.24704000
0.49972534,-85.69831000
0.50010681,-75.91298000
0.50048828,-70.54224000
0.50086975,-69.53197000
0.50125122,-72.88995000
0.50163269,-79.84029000
0.50201416,-78.23306000
0.50239563,-80.90721000
0.50277710,-82.12658000
0.50315857,-75.73329000
0.50354004,-71.75764000
0.50392151,-71.56348000
0.50430298,-73.54913000
0.50468445,-76.71052000
0.50506592,-78.36555000
0.50544739,-72.72333000
0.50582886,-69.55099000
0.50621033,-68.91166000
0.50659180,-70.91069000
0.50697327,-76.55440000
0.50735474,-90.59863000
0.50773621,-90.15425000
0.50811768,-82.83450000
0.50849915,-77.41842000
0.50888062,-73.49079000
0.50926208,-69.97144000
0.50964355,-71.30873000
0.51002502,-76.08646000
0.51040649,-78.16125000
0.51078796,-75.26768000
0.51116943,-73.66219000
0.51155090,-76.86488000
0.51193237,-75.58960000
0.51231384,-70.64317000
0.51269531,-70.75983000
0.51307678,-76.00359000
0.51345825,-83.88940000
0.51383972,-84.77060000
0.51422119,-92.24710000
0.51460266,-86.91860000
0.51498413,-90.93879000
0.51536560,-81.38279000
0.51574707,-85.73642000
0.51612854,-79.69830000
0.51651001,-74.68115000
0.51689148,-74.85144000
0.51727295,-76.65662000
0.51765442,-77.31607000
0.51803589,-77.61300000
0.51841736,-81.37566000
0.51879883,-93.81283000
0.51918030,-96.04962000
0.51956177,-87.42656000
0.51994324,-80.96355000
0.52032471,-81.92993000
0.52070618,-78.13209000
0.52108765,-74.29065000
0.52146912,-75.30868000
0.52185059,-76.72218000
0.52223206,-73.69219000
0.52261353,-72.22429000
0.52299500,-73.82185000
0.52337646,-73.91884000
0.52375793,-73.62199000
0.52413940,-81.02924000
0.52452087,-76.67503000
0.52490234,-77.00548000
0.52528381,-80.12750000
0.52566528,-73.95100000
0.52604675,-75.38919000
0.52642822,-80.11666000
0.52680969,-72.79762000
0.52719116,-70.50929000
0.52757263,-75.63246000
0.52795410,-77.50758000
0.52833557,-78.04017000
0.52871704,-80.64195000
0.52909851,-73.21152000
0.52947998,-74.85698000
0.52986145,-85.82605000
0.53024292,-87.41517000
0.53062439,-79.96781000
0.53100586,-75.38007000
0.53138733,-73.83033000
0.53176880,-77.08176000
0.53215027,-81.02055000
0.53253174,-84.63737000
0.53291321,-79.01610000
0.53329468,-71.50272000
0.53367615,-69.44302000
0.53405762,-71.22397000
0.53443909,-77.97598000
0.53482056,-83.16441000
0.53520203,-78.19920000
0.53558350,-78.43153000
0.53596497,-80.17580000
0.53634644,-72.44772000
0.53672791,-68.79285000
0.53710938,-69.07269000
0.53749084,-71.83456000
0.53787231,-74.73275000
0.53825378,-80.41032000
0.53863525,-89.36966000
0.53901672,-79.04871000
0.53939819,-74.94617000
0.53977966,-72.49802000
0.54016113,-72.32093000
0.54054260,-76.45654000
0.54092407,-86.21249000
0.54130554,-74.93990000
0.54168701,-72.21553000
0.54206848,-75.23228000
0.54244995,-78.19832000
0.54283142,-70.24751000
0.54321289,-67.27541000
0.54359436,-67.91142000
0.54397583,-70.36973000
0.54435730,-71.08590000
0.54473877,-70.19563000
0.54512024,-70.73611000
0.54550171,-73.82712000
0.54588318,-79.32819000
0.54626465,-72.46938000
0.54664612,-68.57217000
0.54702759,-68.12521000
0.54740906,-69.66697000
0.54779053,-74.31768000
0.54817200,-85.97518000
0.54855347,-88.05186000
0.54893494,-83.79104000
0.54931641,-83.33236000
0.54969788,-82.29094000
0.55007935,-79.71185000
0.55046082,-81.97591000
0.55084229,-98.25845000
0.55122375,-78.85183000
0.55160522,-75.08775000
0.55198669,-75.36042000
0.55236816,-79.19620000
0.55274963,-91.79688000
0.55313110,-97.62460000
0.55351257,-82.07558000
0.55389404,-75.44379000
0.55427551,-74.01794000
0.55465698,-75.51855000
0.55503845,-79.16591000
0.55541992,-80.06976000
0.55580139,-79.35971000
0.55618286,-75.71136000
0.55656433,-74.16239000
0.55694580,-73.58824000
0.55732727,-74.58946000
0.55770874,-83.73902000
0.55809021,-75.68630000
0.55847168,-73.18253000
0.55885315,-80.20053000
0.55923462,-80.15510000
0.55961609,-73.28606000
0.55999756,-73.26278000
0.56037903,-74.42133000
0.56076050,-74.62076000
0.56114197,-76.29689000
0.56152344,-81.33304000
0.56190491,-80.74167000
0.56228638,-76.17509000
0.56266785,-74.89791000
0.56304932,-74.97129000
0.56343079,-72.69696000
0.56381226,-69.53832000
0.56419373,-69.42259000
0.56457520,-73.64982000
0.56495667,-81.20179000
0.56533813,-80.29621000
0.56571960,-74.05021000
0.56610107,-72.33630000
0.56648254,-74.57033000
0.56686401,-76.13280000
0.56724548,-77.62469000
0.56762695,-79.06577000
0.56800842,-77.01705000
0.56838989,-75.59056000
0.56877136,-78.14422000
0.56915283,-78.43052000
0.56953430,-73.64373000
0.56991577,-72.49555000
0.57029724,-75.74141000
0.57067871,-79.19172000
0.57106018,-69.78796000
0.57144165,-67.75065000
0.57182312,-69.78165000
0.57220459,-73.66218000
0.57258606,-77.02697000
0.57296753,-78.35939000
0.57334900,-74.19721000
0.57373047,-70.18770000
0.57411194,-69.77373000
0.57449341,-72.66057000
0.57487488,-75.82745000
0.57525635,-78.61963000
0.57563782,-86.45278000
0.57601929,-95.15092000
0.57640076,-84.95428000
0.57678223,-80.75757000
0.57716370,-79.57387000
0.57754517,-83.11983000
0.57792664,-80.93314000
0.57830811,-76.30565000
0.57868958,-73.68255000
0.57907104,-74.19496000
0.57945251,-78.02828000
0.57983398,-81.74214000
0.58021545,-87.86018000
0.58059692,-81.92422000
0.58097839,-71.50995000
0.58135986,-68.72102000
0.58174133,-71.18232000
0.58212280,-79.96092000
0.58250427,-92.95368000
0.58288574,-81.12189000
0.58326721,-77.84066000
0.58364868,-79.75169000
0.58403015,-77.02510000
0.58441162,-74.21945000
0.58479309,-75.09909000
0.58517456,-77.84309000
0.58555603,-76.62814000
0.58593750,-72.10833000
0.58631897,-70.48588000
0.58670044,-73.25519000
0.58708191,-81.19834000
0.58746338,-81.54355000
0.58784485,-83.14824000
0.58822632,-81.57490000
0.58860779,-72.21003000
0.58898926,-72.94910000
0.58937073,-85.76845000
0.58975220,-79.50253000
0.59013367,-74.17628000
0.59051514,-72.77917000
0.59089661,-74.32221000
0.59127808,-81.12674000
0.59165955,-93.27682000
0.59204102,-83.22098000
0.59242249,-78.28144000
0.59280396,-73.62515000
0.59318542,-76.31758000
0.59356689,-81.23535000
0.59394836,-75.21693000
0.59432983,-78.26537000
0.59471130,-77.12193000
0.59509277,-75.55743000
0.59547424,-74.51963000
0.59585571,-71.86098000
0.59623718,-76.14122000
0.59661865,-87.35317000
0.59700012,-75.50505000
0.59738159,-72.07442000
0.59776306,-70.41756000
0.59814453,-70.76150000
0.59852600,-72.32397000
0.59890747,-72.59313000
0.59928894,-70.60799000
0.59967041,-69.39830000
0.60005188,-72.43419000
0.60043335,-95.62025000
0.60081482,-76.37090000
0.60119629,-75.10152000
0.60157776,-76.98646000
0.60195923,-81.75159000
0.60234070,-85.12672000
0.60272217,-77.16286000
0.60310364,-83.68565000
0.60348511,-84.68463000
0.60386658,-78.17870000
0.60424805,-77.47574000
0.60462952,-80.12925000
0.60501099,-80.95839000
0.60539246,-73.22735000
0.60577393,-69.91212000
0.60615540,-69.98584000
0.60653687,-74.36504000
0.60691833,-77.48415000
0.60729980,-75.37259000
0.60768127,-77.89346000
0.60806274,-78.25261000
0.60844421,-74.25523000
0.60882568,-71.54722000
0.60920715,-68.73463000
0.60958862,-68.08429000
0.60997009,-70.21703000
0.61035156,-72.77985000
0.61073303,-73.71880000
0.61111450,-75.99803000
0.61149597,-80.70251000
0.61187744,-77.88667000
0.61225891,-74.22199000
0.61264038,-75.54360000
0.61302185,-84.53340000
0.61340332,-71.62236000
0.61378479,-67.02847000
0.61416626,-66.55470000
0.61454773,-68.70887000
0.61492920,-73.75504000
0.61531067,-95.37177000
0.61569214,-73.62125000
0.61607361,-72.13959000
0.61645508,-77.04787000
0.61683655,-100.32490000
0.61721802,-77.90477000
0.61759949,-75.01012000
0.61798096,-76.46371000
0.61836243,-80.98160000
0.61874390,-82.95506000
0.61912537,-79.19578000
0.61950684,-84.52910000
0.61988831,-80.22546000
0.62026978,-77.14278000
0.62065125,-80.26298000
0.62103271,-82.52306000
0.62141418,-79.07257000
0.62179565,-73.76271000
0.62217712,-74.91434000
0.62255859,-80.54976000
0.62294006,-81.37785000
0.62332153,-81.27773000
0.62370300,-82.55151000
0.62408447,-83.57148000
0.62446594,-75.81866000
0.62484741,-74.03673000
0.62522888,-76.79723000
0.62561035,-86.31798000
0.62599182,-80.41267000
0.62637329,-79.12077000
0.62675476,-85.23657000
0.62713623,-78.13609000
0.62751770,-74.58437000
0.62789917,-76.85357000
0.62828064,-75.49297000
0.62866211,-71.26411000
0.62904358,-69.29456000
0.62942505,-70.97535000
0.62980652,-79.94965000
0.63018799,-78.82728000
0.63056946,-76.49916000
0.63095093,-80.74027000
0.63133240,-78.09184000
0.63171387,-80.19888000
0.63209534,-88.11581000
0.63247681,-80.41066000
0.63285828,-82.27105000
0.63323975,-87.41335000
0.63362122,-75.59797000
0.63400269,-71.26460000
0.63438416,-71.28865000
0.63476563,-74.10054000
0.63514709,-76.61963000
0.63552856,-77.04325000
0.63591003,-80.72392000
0.63629150,-92.91319000
0.63667297,-93.53054000
0.63705444,-80.57647000
0.63743591,-72.61806000
0.63781738,-73.49561000
0.63819885,-84.44014000
0.63858032,-85.20406000
0.63896179,-79.42850000
0.63934326,-71.77089000
0.63972473,-73.04271000
0.64010620,-84.75861000
0.64048767,-81.63797000
0.64086914,-77.20837000
0.64125061,-76.46535000
0.64163208,-74.62183000
0.64201355,-73.52157000
0.64239502,-74.73081000
0.64277649,-75.79837000
0.64315796,-78.27356000
0.64353943,-82.83578000
0.64392090,-86.96095000
0.64430237,-82.72056000
0.64468384,-72.54337000
0.64506531,-70.61555000
0.64544678,-75.02780000
0.64582825,-85.57201000
0.64620972,-81.15067000
0.64659119,-78.17641000
0.64697266,-78.63649000
0.64735413,-78.66816000
0.64773560,-78.34413000
0.64811707,-81.37048000
0.64849854,-79.29269000
0.64888000,-77.32431000
0.64926147,-80.25532000
0.64964294,-78.77173000
0.65002441,-79.06204000
0.65040588,-80.91155000
0.65078735,-80.03922000
0.65116882,-90.78879000
0.65155029,-80.47522000
0.65193176,-75.77946000
0.65231323,-77.02020000
0.65269470,-81.01180000
0.65307617,-87.89493000
0.65345764,-101.49700000
0.65383911,-79.36118000
0.65422058,-71.86762000
0.65460205,-70.98425000
0.65498352,-73.91335000
0.65536499,-74.03176000
0.65574646,-74.39324000
0.65612793,-76.95954000
0.65650940,-83.67287000
0.65689087,-78.39324000
0.65727234,-71.26899000
0.65765381,-69.98139000
0.65803528,-73.23408000
0.65841675,-85.41310000
0.65879822,-73.34709000
0.65917969,-72.21387000
0.65956116,-77.44801000
0.65994263,-71.48019000
0.66032410,-68.56245000
0.66070557,-71.38650000
0.66108704,-79.87574000
0.66146851,-83.15761000
0.66184998,-77.60186000
0.66223145,-74.41222000
0.66261292,-72.87103000
0.66299438,-73.53013000
0.66337585,-79.46857000
0.66375732,-86.46110000
0.66413879,-81.09814000
0.66452026,-75.17446000
0.66490173,-73.53027000
0.66528320,-75.95164000
0.66566467,-77.93768000
0.66604614,-73.48588000
0.66642761,-72.88173000
0.66680908,-75.16681000
0.66719055,-74.78381000
0.66757202,-72.42912000
0.66795349,-73.13796000
0.66833496,-78.27779000
0.66871643,-91.07303000
0.66909790,-84.86052000
0.66947937,-89.01971000
0.66986084,-78.69060000
0.67024231,-73.21761000
0.67062378,-70.80232000
0.67100525,-71.59282000
0.67138672,-75.01514000
0.67176819,-74.80185000
0.67214966,-77.42186000
0.67253113,-86.19141000
0.67291260,-75.25935000
0.67329407,-76.48512000
0.67367554,-78.39563000
0.67405701,-75.84118000
0.67443848,-76.23122000
0.67481995,-85.27853000
0.67520142,-92.33673000
0.67558289,-83.78944000
0.67596436,-76.34953000
0.67634583,-74.39302000
0.67672729,-73.03515000
0.67710876,-71.22729000
0.67749023,-70.68549000
0.67787170,-72.07770000
0.67825317,-73.86230000
0.67863464,-77.53023000
0.67901611,-88.73714000
0.67939758,-73.72596000
0.67977905,-71.93407000
0.68016052,-73.93266000
0.68054199,-72.76410000
0.68092346,-71.59071000
0.68130493,-71.51570000
0.68168640,-73.85014000
0.68206787,-79.08929000
0.68244934,-78.84199000
0.68283081,-78.60633000
0.68321228,-81.43143000
0.68359375,-73.65450000
0.68397522,-71.18001000
0.68435669,-74.16991000
0.68473816,-80.29331000
0.68511963,-80.79480000
0.68550110,-78.48358000
0.68588257,-74.94048000
0.68626404,-73.92439000
0.68664551,-78.00356000
0.68702698,-87.88642000
0.68740845,-94.28363000
0.68778992,-78.20222000
0.68817139,-77.29552000
0.68855286,-102.47990000
0.68893433,-78.13064000
0.68931580,-76.85464000
0.68969727,-74.93731000
0.69007874,-73.64413000
0.69046021,-78.70116000
0.69084167,-86.84035000
0.69122314,-77.14560000
0.69160461,-74.96177000
0.69198608,-73.64281000
0.69236755,-73.50938000
0.69274902,-76.89371000
0.69313049,-83.95105000
0.69351196,-80.89760000
0.69389343,-82.57783000
0.69427490,-97.37134000
0.69465637,-78.37685000
0.69503784,-72.41663000
0.69541931,-70.56036000
0.69580078,-70.95170000
0.69618225,-74.14900000
0.69656372,-75.76217000
0.69694519,-72.90204000
0.69732666,-70.34351000
0.69770813,-68.92063000
0.69808960,-71.62681000
0.69847107,-106.88840000
0.69885254,-72.65714000
0.69923401,-70.58602000
0.69961548,-71.21632000
0.69999695,-70.41557000
0.70037842,-69.64033000
0.70075989,-70.81047000
0.70114136,-72.89758000
0.70152283,-74.98178000
0.70190430,-75.54601000
0.70228577,-79.09669000
0.70266724,-85.19270000
0.70304871,-74.66111000
0.70343018,-73.23423000
0.70381165,-76.78954000
0.70419312,-82.00374000
0.70457458,-75.82516000
0.70495605,-72.97841000
0.70533752,-75.61524000
0.70571899,-87.21658000
0.70610046,-76.41920000
0.70648193,-78.00790000
0.70686340,-90.73822000
0.70724487,-76.16171000
0.70762634,-75.66067000
0.70800781,-85.40353000
0.70838928,-87.71935000
0.70877075,-78.59114000
0.70915222,-72.95052000
0.70953369,-71.76707000
0.70991516,-71.06393000
0.71029663,-70.36855000
0.71067810,-72.42915000
0.71105957,-76.59438000
0.71144104,-83.33383000
0.71182251,-80.66550000
0.71220398,-75.30389000
0.71258545,-70.65083000
0.71296692,-69.01653000
0.71334839,-72.30775000
0.71372986,-77.38347000
0.71411133,-75.28508000
0.71449280,-77.42707000
0.71487427,-83.62306000
0.71525574,-79.10143000
0.71563721,-78.39016000
0.71601868,-78.51033000
0.71640015,-75.34339000
0.71678162,-71.49825000
0.71716309,-71.70899000
0.71754456,-78.64452000
0.71792603,-84.12380000
0.71830750,-80.16034000
0.71868896,-85.54721000
0.71907043,-100.10380000
0.71945190,-90.76546000
0.71983337,-84.31858000
0.72021484,-74.20448000
0.72059631,-69.45532000
0.72097778,-69.70166000
0.72135925,-73.46507000
0.72174072,-75.35264000
0.72212219,-71.19585000
0.72250366,-68.92201000
0.72288513,-69.33915000
0.72326660,-70.73493000
0.72364807,-72.47132000
0.72402954,-73.95425000
0.72441101,-75.87450000
0.72479248,-79.34607000
0.72517395,-96.85222000
0.72555542,-76.19813000
0.72593689,-73.08588000
0.72631836,-72.59145000
0.72669983,-73.27287000
0.72708130,-74.57550000
0.72746277,-77.39045000
0.72784424,-81.00358000
0.72822571,-81.09856000
0.72860718,-79.55849000
0.72898865,-75.17847000
0.72937012,-76.14831000
0.72975159,-77.07078000
0.73013306,-72.88886000
0.73051453,-71.26945000
0.73089600,-73.00745000
0.73127747,-77.88700000
0.73165894,-81.06833000
0.73204041,-76.76531000
0.73242188,-77.30002000
0.73280334,-81.91165000
0.73318481,-82.36244000
0.73356628,-84.35032000
0.73394775,-93.81548000
0.73432922,-78.51378000
0.73471069,-74.57425000
0.73509216,-76.01533000
0.73547363,-80.49644000
0.73585510,-81.50723000
0.73623657,-84.48718000
0.73661804,-80.14909000
0.73699951,-70.03778000
0.73738098,-67.20186000
0.73776245,-68.33091000
0.73814392,-72.86507000
0.73852539,-76.09060000
0.73890686,-72.76991000
0.73928833,-71.34877000
0.73966980,-73.29965000
0.74005127,-85.84029000
0.74043274,-73.93506000
0.74081421,-68.30995000
0.74119568,-68.53172000
0.74157715,-71.17715000
0.74195862,-71.64938000
0.74234009,-70.55384000
0.74272156,-69.97789000
0.74310303,-70.35829000
0.74348450,-70.79059000
0.74386597,-70.70918000
0.74424744,-70.51506000
0.74462891,-70.69081000
0.74501038,-72.22894000
0.74539185,-74.84905000
0.74577332,-75.20860000
0.74615479,-77.96510000
0.74653625,-82.72159000
0.74691772,-76.73023000
0.74729919,-77.19800000
0.74768066,-79.33498000
0.74806213,-77.84813000
0.74844360,-73.93046000
0.74882507,-72.89727000
0.74920654,-73.36673000
0.74958801,-74.51073000
0.74996948,-75.40482000
0.75035095,-74.00066000
0.75073242,-72.97200000
0.75111389,-77.00014000
0.75149536,-96.84973000
0.75187683,-85.77751000
0.75225830,-79.18592000
0.75263977,-72.60281000
0.75302124,-72.39321000
0.75340271,-74.42306000
0.75378418,-75.75475000
0.75416565,-78.27298000
0.75454712,-87.46146000
0.75492859,-78.99821000
0.75531006,-72.71699000
0.75569153,-72.87164000
0.75607300,-77.42411000
0.75645447,-75.47717000
0.75683594,-74.83914000
0.75721741,-73.62778000
0.75759888,-71.94246000
0.75798035,-72.53421000
0.75836182,-72.71940000
0.75874329,-74.66115000
0.75912476,-79.53198000
0.75950623,-75.82186000
0.75988770,-78.73660000
0.76026917,-84.48077000
0.76065063,-80.45007000
0.76103210,-76.79944000
0.76141357,-75.93720000
0.76179504,-80.70416000
0.76217651,-97.00183000
0.76255798,-88.52089000
0.76293945,-89.47923000
0.76332092,-88.42886000
0.76370239,-76.34085000
0.76408386,-71.25840000
0.76446533,-69.86380000
0.76484680,-69.47264000
0.76522827,-70.07411000
0.76560974,-72.56477000
0.76599121,-73.47640000
0.76637268,-75.03852000
0.76675415,-84.70588000
0.76713562,-80.80947000
0.76751709,-81.68774000
0.76789856,-82.09549000
0.76828003,-74.03340000
0.76866150,-75.92841000
0.76904297,-87.02293000
0.76942444,-88.09140000
0.76980591,-83.34485000
0.77018738,-81.94727000
0.77056885,-86.51726000
0.77095032,-76.76461000
0.77133179,-71.65839000
0.77171326,-71.13065000
0.77209473,-73.48051000
0.77247620,-81.03835000
0.77285767,-87.72507000
0.77323914,-78.60471000
0.77362061,-78.22812000
0.77400208,-77.09180000
0.77438354,-77.52229000
0.77476501,-84.63700000
0.77514648,-100.36610000
0.77552795,-91.22641000
0.77590942,-90.12912000
0.77629089,-85.75538000
0.77667236,-78.17185000
0.77705383,-73.32698000
0.77743530,-72.64233000
0.77781677,-76.53766000
0.77819824,-75.80577000
0.77857971,-71.89005000
0.77896118,-71.72166000
0.77934265,-72.34669000
0.77972412,-71.52337000
0.78010559,-72.90627000
0.78048706,-76.94592000
0.78086853,-77.08920000
0.78125000,-75.87936000
0.78163147,-74.26450000
0.78201294,-73.61215000
0.78239441,-75.59981000
0.78277588,-72.23616000
0.78315735,-70.32363000
0.78353882,-71.72255000
0.78392029,-75.27425000
0.78430176,-81.01371000
0.78468323,-91.78625000
0.78506470,-90.66226000
0.78544617,-90.84352000
0.78582764,-91.25428000
0.78620911,-90.06773000
0.78659058,-84.66488000
0.78697205,-80.76616000
0.78735352,-81.98477000
0.78773499,-81.89948000
0.78811646,-81.99469000
0.78849792,-92.64217000
0.78887939,-84.52475000
0.78926086,-84.57778000
0.78964233,-81.50174000
0.79002380,-74.79070000
0.79040527,-77.32698000
0.79078674,-81.05666000
0.79116821,-76.42308000
0.79154968,-73.35603000
0.79193115,-71.43865000
0.79231262,-73.87460000
0.79269409,-76.79014000
0.79307556,-81.29408000
0.79345703,-96.19437000
0.79383850,-84.23295000
0.79421997,-78.53271000
0.79460144,-73.45712000
0.79498291,-69.20457000
0.79536438,-67.48546000
0.79574585,-68.83027000
0.79612732,-71.41476000
0.79650879,-73.14535000
0.79689026,-72.37992000
0.79727173,-70.47374000
0.79765320,-73.52245000
0.79803467,-79.20842000
0.79841614,-78.45903000
0.79879761,-78.13735000
0.79917908,-84.77057000
0.79956055,-90.11218000
0.79994202,-87.37527000
0.80032349,-76.00326000
0.80070496,-71.97889000
0.80108643,-71.60625000
0.80146790,-72.59415000
0.80184937,-71.56909000
0.80223083,-68.99383000
0.80261230,-68.68883000
0.80299377,-71.67406000
0.80337524,-70.05429000
0.80375671,-67.25710000
0.80413818,-68.44537000
0.80451965,-76.77673000
0.80490112,-79.77547000
0.80528259,-75.59158000
0.80566406,-76.04041000
0.80604553,-76.54265000
0.80642700,-77.27452000
0.80680847,-76.10160000
0.80718994,-78.46979000
0.80757141,-82.48035000
0.80795288,-76.68328000
0.80833435,-74.56826000
0.80871582,-74.73985000
0.80909729,-73.39999000
0.80947876,-72.59457000
0.80986023,-76.49609000
0.81024170,-76.54987000
0.81062317,-71.83392000
0.81100464,-68.98782000
0.81138611,-67.42143000
0.81176758,-67.14847000
0.81214905,-68.30206000
0.81253052,-70.85671000
0.81291199,-74.67270000
0.81329346,-79.34737000
0.81367493,-90.21367000
0.81405640,-77.51026000
0.81443787,-73.17146000
0.81481934,-76.63734000
0.81520081,-87.77312000
0.81558228,-76.48247000
0.81596375,-74.11359000
0.81634521,-73.46655000
0.81672668,-75.00601000
0.81710815,-73.33138000
0.81748962,-70.94144000
0.81787109,-70.78214000
0.81825256,-71.40842000
0.81863403,-70.15876000
0.81901550,-72.03639000
0.81939697,-83.51981000
0.81977844,-74.93925000
0.82015991,-73.28284000
0.82054138,-73.58846000
0.82092285,-72.08609000
0.82130432,-73.11830000
0.82168579,-74.77367000
0.82206726,-74.41915000
0.82244873,-78.33002000
0.82283020,-87.92216000
0.82321167,-74.82178000
0.82359314,-73.80142000
0.82397461,-77.62961000
0.82435608,-78.32748000
0.82473755,-76.87318000
0.82511902,-78.67463000
0.82550049,-77.80022000
0.82588196,-74.88839000
0.82626343,-75.04635000
0.82664490,-82.06903000
0.82702637,-75.12160000
0.82740784,-72.06898000
0.82778931,-72.46911000
0.82817078,-73.87209000
0.82855225,-75.91340000
0.82893372,-74.00182000
0.82931519,-71.29304000
0.82969666,-72.57742000
0.83007813,-77.70692000
0.83045959,-86.03477000
0.83084106,-83.07640000
0.83122253,-81.68721000
0.83160400,-84.03859000
0.83198547,-83.87657000
0.83236694,-79.19074000
0.83274841,-77.71602000
0.83312988,-78.66714000
0.83351135,-82.60760000
0.83389282,-83.72102000
0.83427429,-74.16647000
0.83465576,-70.94142000
0.83503723,-74.00942000
0.83541870,-81.43204000
0.83580017,-80.30464000
0.83618164,-77.95361000
0.83656311,-76.16087000
0.83694458,-72.00105000
0.83732605,-70.32175000
0.83770752,-71.58424000
0.83808899,-74.55033000
0.83847046,-76.25140000
0.83885193,-71.62772000
0.83923340,-70.32143000
0.83961487,-73.06175000
0.83999634,-78.01522000
0.84037781,-85.50456000
0.84075928,-78.07474000
0.84114075,-83.70288000
0.84152222,-76.99559000
0.84190369,-73.35317000
0.84228516,-75.16173000
0.84266663,-75.83963000
0.84304810,-73.98227000
0.84342957,-74.60381000
0.84381104,-72.03816000
0.84419250,-71.44183000
0.84457397,-74.12795000
0.84495544,-76.67194000
0.84533691,-77.09299000
0.84571838,-76.35268000
0.84609985,-75.14579000
0.84648132,-73.92678000
0.84686279,-74.11518000
0.84724426,-76.80103000
0.84762573,-75.70598000
0.84800720,-74.41472000
0.84838867,-76.45401000
0.84877014,-76.34624000
0.84915161,-74.39097000
0.84953308,-75.25199000
0.84991455,-77.22962000
0.85029602,-78.97523000
0.85067749,-81.89001000
0.85105896,-88.90678000
0.85144043,-89.34744000
0.85182190,-103.74380000
0.85220337,-91.11648000
0.85258484,-110.05550000
0.85296631,-81.79280000
0.85334778,-74.59110000
0.85372925,-70.94025000
0.85411072,-70.46764000
0.85449219,-74.93076000
0.85487366,-79.79221000
0.85525513,-79.25922000
0.85563660,-76.58525000
0.85601807,-71.67079000
0.85639954,-70.71009000
0.85678101,-71.69306000
0.85716248,-74.48625000
0.85754395,-77.03632000
0.85792542,-73.62131000
0.85830688,-74.75940000
0.85868835,-80.96330000
0.85906982,-77.36481000
0.85945129,-75.46179000
0.85983276,-79.70848000
0.86021423,-88.36735000
0.86059570,-87.01240000
0.86097717,-80.81503000
0.86135864,-78.16151000
0.86174011,-76.39864000
0.86212158,-76.47399000
0.86250305,-77.73256000
0.86288452,-77.30347000
0.86326599,-76.04049000
0.86364746,-77.15611000
0.86402893,-81.37984000
0.86441040,-83.94099000
0.86479187,-76.78551000
0.86517334,-74.14449000
0.86555481,-73.18214000
0.86593628,-72.88846000
0.86631775,-73.98844000
0.86669922,-73.97164000
0.86708069,-73.97488000
0.86746216,-81.30592000
0.86784363,-78.09097000
0.86822510,-74.28900000
0.86860657,-76.63052000
0.86898804,-78.94976000
0.86936951,-79.53389000
0.86975098,-82.25022000
0.87013245,-81.88298000
0.87051392,-87.79731000
0.87089539,-78.98693000
0.87127686,-76.73129000
0.87165833,-73.31229000
0.87203979,-70.78916000
0.87242126,-70.88339000
0.87280273,-75.11150000
0.87318420,-82.50903000
0.87356567,-80.08004000
0.87394714,-74.31205000
0.87432861,-71.79742000
0.87471008,-71.24636000
0.87509155,-71.58996000
0.87547302,-72.49358000
0.87585449,-74.30737000
0.87623596,-73.01089000
0.87661743,-71.47700000
0.87699890,-74.06261000
0.87738037,-82.49005000
0.87776184,-78.50479000
0.87814331,-77.71184000
0.87852478,-81.74277000
0.87890625,-81.00175000
0.87928772,-76.93871000
0.87966919,-72.36989000
0.88005066,-69.34615000
0.88043213,-69.30415000
0.88081360,-72.35682000
0.88119507,-74.43547000
0.88157654,-75.38073000
0.88195801,-78.46027000
0.88233948,-74.12982000
0.88272095,-70.92484000
0.88310242,-70.33212000
0.88348389,-72.42310000
0.88386536,-77.57893000
0.88424683,-82.87598000
0.88462830,-90.55291000
0.88500977,-79.05906000
0.88539124,-77.18085000
0.88577271,-78.21984000
0.88615417,-76.10645000
0.88653564,-72.47803000
0.88691711,-70.88017000
0.88729858,-72.52563000
0.88768005,-79.69502000
0.88806152,-85.83109000
0.88844299,-81.76135000
0.88882446,-97.60902000
0.88920593,-81.09164000
0.88958740,-75.62542000
0.88996887,-73.15906000
0.89035034,-73.90181000
0.89073181,-79.90247000
0.89111328,-77.12323000
0.89149475,-70.16644000
0.89187622,-68.10315000
0.89225769,-71.55116000
0.89263916,-89.62777000
0.89302063,-73.15276000
0.89340210,-72.27966000
0.89378357,-74.82804000
0.89416504,-72.58311000
0.89454651,-72.05910000
0.89492798,-74.42355000
0.89530945,-75.71693000
0.89569092,-76.70495000
0.89607239,-76.37509000
0.89645386,-74.27074000
0.89683533,-77.26739000
0.89721680,-81.51059000
0.89759827,-77.47482000
0.89797974,-80.29840000
0.89836121,-76.21837000
0.89874268,-78.58306000
0.89912415,-79.78310000
0.89950562,-73.00224000
0.89988708,-70.95664000
0.90026855,-71.26035000
0.90065002,-72.64350000
0.90103149,-74.17747000
0.90141296,-75.07411000
0.90179443,-78.36067000
0.90217590,-78.27567000
0.90255737,-79.76193000
0.90293884,-83.04494000
0.90332031,-77.30630000
0.90370178,-75.52583000
0.90408325,-76.12469000
0.90446472,-75.23831000
0.90484619,-73.95303000
0.90522766,-75.61210000
0.90560913,-82.01797000
0.90599060,-87.16121000
0.90637207,-81.40499000
0.90675354,-76.18443000
0.90713501,-72.31334000
0.90751648,-70.55202000
0.90789795,-71.66902000
0.90827942,-74.67120000
0.90866089,-76.53686000
0.90904236,-78.83000000
0.90942383,-92.99352000
0.90980530,-75.66766000
0.91018677,-73.95560000
0.91056824,-76.95572000
0.91094971,-77.33488000
0.91133118,-72.82918000
0.91171265,-69.61774000
0.91209412,-69.31044000
0.91247559,-72.33537000
0.91285706,-77.21951000
0.91323853,-74.56857000
0.91362000,-72.80566000
0.91400146,-73.88387000
0.91438293,-76.49271000
0.91476440,-83.64218000
0.91514587,-77.03395000
0.91552734,-71.84338000
0.91590881,-71.51263000
0.91629028,-72.13797000
0.91667175,-72.58780000
0.91705322,-75.21808000
0.91743469,-87.08858000
0.91781616,-78.95216000
0.91819763,-73.65176000
0.91857910,-73.82024000
0.91896057,-76.71527000
0.91934204,-87.10472000
0.91972351,-77.28164000
0.92010498,-73.80714000
0.92048645,-78.18906000
0.92086792,-82.21985000
0.92124939,-72.22605000
0.92163086,-70.48077000
0.92201233,-73.14567000
0.92239380,-77.75517000
0.92277527,-76.38800000
0.92315674,-79.53316000
0.92353821,-80.60733000
0.92391968,-76.11222000
0.92430115,-75.48161000
0.92468262,-77.28445000
0.92506409,-83.95749000
0.92544556,-77.72654000
0.92582703,-72.08752000
0.92620850,-72.59396000
0.92658997,-78.40057000
0.92697144,-86.81657000
0.92735291,-78.52828000
0.92773438,-74.30123000
0.92811584,-74.69142000
0.92849731,-77.13492000
0.92887878,-73.42651000
0.92926025,-73.23820000
0.92964172,-81.25016000
0.93002319,-79.90489000
0.93040466,-76.63393000
0.93078613,-85.63552000
0.93116760,-81.80576000
0.93154907,-77.30425000
0.93193054,-74.87084000
0.93231201,-72.50809000
0.93269348,-69.61100000
0.93307495,-68.31087000
0.93345642,-68.78472000
0.93383789,-71.05470000
0.93421936,-74.31834000
0.93460083,-75.53578000
0.93498230,-78.29421000
0.93536377,-84.47829000
0.93574524,-84.65873000
0.93612671,-82.82868000
0.93650818,-81.76332000
0.93688965,-77.03223000
0.93727112,-75.10606000
0.93765259,-74.74090000
0.93803406,-74.68127000
0.93841553,-75.25266000
0.93879700,-76.14056000
0.93917847,-80.27085000
0.93955994,-82.62154000
0.93994141,-79.33803000
0.94032288,-81.90166000
0.94070435,-78.59814000
0.94108582,-77.53125000
0.94146729,-83.59026000
0.94184875,-91.41025000
0.94223022,-88.13717000
0.94261169,-77.30459000
0.94299316,-72.92372000
0.94337463,-71.52663000
0.94375610,-71.84368000
0.94413757,-72.53700000
0.94451904,-74.87467000
0.94490051,-86.93230000
0.94528198,-80.59315000
0.94566345,-76.78994000
0.94604492,-76.57580000
0.94642639,-77.78174000
0.94680786,-73.47537000
0.94718933,-73.07230000
0.94757080,-76.43565000
0.94795227,-73.02091000
0.94833374,-72.52565000
0.94871521,-78.33627000
0.94909668,-83.33675000
0.94947815,-75.40681000
0.94985962,-75.34499000
0.95024109,-79.11859000
0.95062256,-86.61670000
0.95100403,-90.54015000
0.95138550,-81.68605000
0.95176697,-79.65117000
0.95214844,-77.68676000
0.95252991,-74.25413000
0.95291138,-72.84060000
0.95329285,-75.24621000
0.95367432,-80.35363000
0.95405579,-82.41771000
0.95443726,-84.65869000
0.95481873,-84.88416000
0.95520020,-79.22851000
0.95558167,-80.66827000
0.95596313,-84.60583000
0.95634460,-77.23335000
0.95672607,-74.78623000
0.95710754,-77.18941000
0.95748901,-80.04917000
0.95787048,-78.38313000
0.95825195,-72.08656000
0.95863342,-73.33091000
0.95901489,-85.40543000
0.95939636,-77.65467000
0.95977783,-74.10529000
0.96015930,-74.76702000
0.96054077,-71.88605000
0.96092224,-72.00515000
0.96130371,-74.99346000
0.96168518,-73.10649000
0.96206665,-72.60292000
0.96244812,-71.61242000
0.96282959,-72.36259000
0.96321106,-77.37738000
0.96359253,-76.37513000
0.96397400,-71.08149000
0.96435547,-69.51422000
0.96473694,-71.35733000
0.96511841,-76.64397000
0.96549988,-85.98264000
0.96588135,-80.72837000
0.96626282,-82.11395000
0.96664429,-90.72018000
0.96702576,-77.57225000
0.96740723,-74.21483000
0.96778870,-72.62980000
0.96817017,-72.80048000
0.96855164,-75.04572000
0.96893311,-76.44708000
0.96931458,-77.11680000
0.96969604,-83.96669000
0.97007751,-87.32486000
0.97045898,-81.74962000
0.97084045,-78.50551000
0.97122192,-76.11678000
0.97160339,-76.50699000
0.97198486,-78.64813000
0.97236633,-81.86698000
0.97274780,-87.45724000
0.97312927,-75.23719000
0.97351074,-71.66557000
0.97389221,-71.27600000
0.97427368,-71.49252000
0.97465515,-71.73020000
0.97503662,-71.12706000
0.97541809,-70.41190000
0.97579956,-70.66274000
0.97618103,-70.69563000
0.97656250,-69.72298000
0.97694397,-69.78377000
0.97732544,-71.64945000
0.97770691,-73.45538000
0.97808838,-71.50628000
0.97846985,-70.91581000
0.97885132,-74.88081000
0.97923279,-77.23438000
0.97961426,-71.85986000
0.97999573,-72.26173000
0.98037720,-74.33196000
0.98075867,-77.90997000
0.98114014,-80.53674000
0.98152161,-74.44723000
0.98190308,-71.53021000
0.98228455,-72.59702000
0.98266602,-73.31143000
0.98304749,-74.46648000
0.98342896,-79.68878000
0.98381042,-85.49511000
0.98419189,-80.09566000
0.98457336,-77.08525000
0.98495483,-74.46179000
0.98533630,-71.33960000
0.98571777,-70.12740000
0.98609924,-71.45282000
0.98648071,-74.53143000
0.98686218,-75.07507000
0.98724365,-73.98659000
0.98762512,-73.02335000
0.98800659,-71.31261000
0.98838806,-69.93126000
0.98876953,-71.01127000
0.98915100,-74.70872000
0.98953247,-73.44305000
0.98991394,-72.08600000
0.99029541,-72.16059000
0.99067688,-73.99596000
0.99105835,-80.77275000
0.99143982,-85.66702000
0.99182129,-78.41925000
0.99220276,-80.18810000
0.99258423,-82.97845000
0.99296570,-84.16704000
0.99334717,-88.43040000
0.99372864,-96.99803000
0.99411011,-84.88770000
0.99449158,-81.44024000
0.99487305,-78.60876000
0.99525452,-74.76614000
0.99563599,-72.18570000
0.99601746,-71.65121000
0.99639893,-72.62622000
0.99678040,-74.19568000
0.99716187,-77.59311000
0.99754333,-75.41518000
0.99792480,-72.45034000
0.99830627,-73.40582000
0.99868774,-71.01701000
0.99906921,-67.00735000
0.99945068,-66.15201000
0.99983215,-68.52969000
1.00021362,-72.81470000
1.00059509,-74.57539000
1.00097656,-74.79335000
1.00135803,-73.04182000
1.00173950,-70.43034000
1.00212097,-71.78746000
1.00250244,-75.52820000
1.00288391,-75.11422000
1.00326538,-77.76350000
1.00364685,-82.66748000
1.00402832,-85.85538000
1.00440979,-77.54522000
1.00479126,-75.66852000
1.00517273,-81.74962000
1.00555420,-77.26715000
1.00593567,-73.79757000
1.00631714,-72.55862000
1.00669861,-73.37579000
1.00708008,-75.94171000
1.00746155,-70.84972000
1.00784302,-68.78010000
1.00822449,-69.91588000
1.00860596,-72.51943000
1.00898743,-75.41470000
1.00936890,-76.52406000
1.00975037,-74.47937000
1.01013184,-75.21414000
1.01051331,-82.49559000
1.01089478,-83.82445000
1.01127625,-88.47318000
1.01165771,-80.91739000
1.01203918,-77.44468000
1.01242065,-77.87657000
1.01280212,-78.39061000
1.01318359,-81.46980000
1.01356506,-85.59448000
1.01394653,-85.79010000
1.01432800,-86.86954000
1.01470947,-83.10712000
1.01509094,-78.96375000
1.01547241,-76.77681000
1.01585388,-75.64118000
1.01623535,-75.97107000
1.01661682,-79.51051000
1.01699829,-83.19360000
1.01737976,-93.04173000
1.01776123,-89.14995000
1.01814270,-78.28810000
1.01852417,-73.76209000
1.01890564,-72.32854000
1.01928711,-72.33842000
1.01966858,-73.01402000
1.02005005,-72.98441000
1.02043152,-72.25075000
1.02081299,-71.70737000
1.02119446,-72.43676000
1.02157593,-73.42442000
1.02195740,-73.16901000
1.02233887,-75.42905000
1.02272034,-83.81033000
1.02310181,-80.81874000
1.02348328,-75.67923000
1.02386475,-76.21465000
1.02424622,-77.11407000
1.02462769,-80.61489000
1.02500916,-86.67121000
1.02539063,-78.71156000
1.02577209,-76.00341000
1.02615356,-73.47889000
1.02653503,-72.53690000
1.02691650,-73.95980000
1.02729797,-77.48154000
1.02767944,-79.72475000
1.02806091,-83.43140000
1.02844238,-80.91550000
1.02882385,-80.77637000
1.02920532,-87.56178000
1.02958679,-79.08875000
1.02996826,-72.96196000
1.03034973,-70.95008000
1.03073120,-72.27757000
1.03111267,-74.63849000
1.03149414,-79.12061000
1.03187561,-84.95868000
1.03225708,-80.34697000
1.03263855,-80.66264000
1.03302002,-80.44066000
1.03340149,-81.19911000
1.03378296,-76.26744000
1.03416443,-76.42459000
1.03454590,-89.53233000
1.03492737,-80.12080000
1.03530884,-74.64524000
1.03569031,-72.63978000
1.03607178,-72.24445000
1.03645325,-72.99674000
1.03683472,-73.43775000
1.03721619,-73.91867000
1.03759766,-76.78798000
1.03797913,-79.00168000
1.03836060,-77.92342000
1.03874207,-84.75475000
1.03912354,-76.13382000
1.03950500,-71.32822000
1.03988647,-71.96290000
1.04026794,-73.62728000
1.04064941,-75.19002000
1.04103088,-77.52307000
1.04141235,-78.93784000
1.04179382,-84.36810000
1.04217529,-74.67495000
1.04255676,-70.29850000
1.04293823,-69.07498000
1.04331970,-70.88986000
1.04370117,-75.20801000
1.04408264,-74.56193000
1.04446411,-73.33093000
1.04484558,-74.15900000
1.04522705,-77.06283000
1.04560852,-80.96831000
1.04598999,-79.75068000
1.04637146,-81.10402000
1.04675293,-86.31423000
1.04713440,-81.26205000
1.04751587,-77.48103000
1.04789734,-78.00671000
1.04827881,-78.67562000
1.04866028,-78.12852000
1.04904175,-84.56128000
1.04942322,-88.50707000
1.04980469,-82.40959000
1.05018616,-78.52731000
1.05056763,-77.60410000
1.05094910,-82.38795000
1.05133057,-88.25652000
1.05171204,-90.21408000
1.05209351,-90.31732000
1.05247498,-80.17295000
1.05285645,-75.13703000
1.05323792,-73.20341000
1.05361938,-74.27464000
1.05400085,-76.77563000
1.05438232,-79.47209000
1.05476379,-79.56402000
1.05514526,-77.03795000
1.05552673,-77.21387000
1.05590820,-80.19534000
1.05628967,-82.87260000
1.05667114,-74.47662000
1.05705261,-71.76912000
1.05743408,-72.56858000
1.05781555,-76.09765000
1.05819702,-85.19765000
1.05857849,-85.39077000
1.05895996,-78.67217000
1.05934143,-82.30683000
1.05972290,-86.59840000
1.06010437,-80.55937000
1.06048584,-80.68718000
1.06086731,-83.23500000
1.06124878,-76.81690000
1.06163025,-75.62074000
1.06201172,-76.90060000
1.06239319,-81.82231000
1.06277466,-80.34661000
1.06315613,-74.32011000
1.06353760,-75.84781000
1.06391907,-80.52049000
1.06430054,-86.90705000
1.06468201,-86.84017000
1.06506348,-79.15880000
1.06544495,-80.20525000
1.06582642,-80.08827000
1.06620789,-78.24932000
1.06658936,-81.38443000
1.06697083,-83.13470000
1.06735229,-82.26363000
1.06773376,-76.39922000
1.06811523,-71.80421000
1.06849670,-70.77289000
1.06887817,-72.10558000
1.06925964,-74.75154000
1.06964111,-78.00432000
1.07002258,-75.63851000
1.07040405,-73.36989000
1.07078552,-76.28276000
1.07116699,-86.13014000
1.07154846,-85.92620000
1.07192993,-82.49497000
1.07231140,-76.02548000
1.07269287,-71.24318000
1.07307434,-70.18797000
1.07345581,-71.84499000
1.07383728,-75.37300000
1.07421875,-76.45203000
1.07460022,-75.92549000
1.07498169,-81.16897000
1.07536316,-83.80650000
1.07574463,-77.35665000
1.07612610,-74.91002000
1.07650757,-77.24868000
1.07688904,-84.17907000
1.07727051,-77.82845000
1.07765198,-75.69623000
1.07803345,-73.46709000
1.07841492,-73.09994000
1.07879639,-77.58047000
1.07917786,-87.79892000
1.07955933,-89.77477000
1.07994080,-79.66354000
1.08032227,-75.29707000
1.08070374,-75.53477000
1.08108521,-75.71881000
1.08146667,-77.59208000
1.08184814,-85.41658000
1.08222961,-77.47119000
1.08261108,-74.95681000
1.08299255,-75.62201000
1.08337402,-75.00777000
1.08375549,-74.68368000
1.08413696,-77.26062000
1.08451843,-80.30067000
1.08489990,-80.19555000
1.08528137,-79.59304000
1.08566284,-80.34890000
1.08604431,-82.99669000
1.08642578,-87.47250000
1.08680725,-89.22927000
1.08718872,-82.96623000
1.08757019,-76.27731000
1.08795166,-73.90625000
1.08833313,-74.83568000
1.08871460,-78.26219000
1.08909607,-81.74379000
1.08947754,-90.79967000
1.08985901,-74.79149000
1.09024048,-69.29698000
1.09062195,-68.40989000
1.09100342,-69.89130000
1.09138489,-72.16443000
1.09176636,-73.11179000
1.09214783,-72.53521000
1.09252930,-71.87562000
1.09291077,-73.49992000
1.09329224,-75.76883000
1.09367371,-77.09102000
1.09405518,-82.81870000
1.09443665,-79.36666000
1.09481812,-73.26301000
1.09519958,-70.50583000
1.09558105,-69.23993000
1.09596252,-68.92292000
1.09634399,-69.69537000
1.09672546,-70.92900000
1.09710693,-71.34171000
1.09748840,-70.59606000
1.09786987,-72.25449000
1.09825134,-81.83719000
1.09863281,-80.47551000
1.09901428,-74.17297000
1.09939575,-72.63593000
1.09977722,-73.35738000
1.10015869,-75.54232000
1.10054016,-74.95045000
1.10092163,-74.15625000
1.10130310,-76.01729000
1.10168457,-81.80775000
1.10206604,-87.82578000
1.10244751,-82.29059000
1.10282898,-79.31123000
1.10321045,-76.29276000
1.10359192,-73.99575000
1.10397339,-72.79329000
1.10435486,-72.52107000
1.10473633,-73.96097000
1.10511780,-77.58276000
1.10549927,-77.17041000
1.10588074,-73.96545000
1.10626221,-73.86034000
1.10664368,-76.79847000
1.10702515,-83.93973000
1.10740662,-72.24260000
1.10778809,-68.71573000
1.10816956,-68.37586000
1.10855103,-68.76922000
1.10893250,-70.37286000
1.10931396,-75.83062000
1.10969543,-79.06088000
1.11007690,-78.40245000
1.11045837,-84.34311000
1.11083984,-84.42735000
1.11122131,-82.58385000
1.11160278,-83.10986000
1.11198425,-90.18177000
1.11236572,-85.82360000
1.11274719,-81.32703000
1.11312866,-82.26654000
1.11351013,-82.00280000
1.11389160,-73.68990000
1.11427307,-70.07640000
1.11465454,-71.34390000
1.11503601,-77.16466000
1.11541748,-87.53804000
1.11579895,-84.24876000
1.11618042,-83.19620000
1.11656189,-80.13893000
1.11694336,-78.66206000
1.11732483,-81.92410000
1.11770630,-84.03442000
1.11808777,-76.89917000
1.11846924,-72.38484000
1.11885071,-71.69028000
1.11923218,-72.49631000
1.11961365,-73.55685000
1.11999512,-77.46004000
1.12037659,-84.51688000
1.12075806,-84.27745000
1.12113953,-77.54731000
1.12152100,-79.06049000
1.12190247,-95.48309000
1.12228394,-88.91437000
1.12266541,-86.60394000
1.12304688,-82.81866000
1.12342834,-78.55476000
1.12380981,-76.29884000
1.12419128,-75.57179000
1.12457275,-73.57818000
1.12495422,-72.61903000
1.12533569,-75.19571000
1.12571716,-81.60461000
1.12609863,-84.10107000
1.12648010,-80.08591000
1.12686157,-76.96365000
1.12724304,-74.86195000
1.12762451,-72.23828000
1.12800598,-73.58859000
1.12838745,-89.55310000
1.12876892,-75.34940000
1.12915039,-71.89474000
1.12953186,-74.97422000
1.12991333,-80.22749000
1.13029480,-75.89601000
1.13067627,-74.47552000
1.13105774,-75.57253000
1.13143921,-77.49061000
1.13182068,-80.04792000
1.13220215,-75.63520000
1.13258362,-73.24116000
1.13296509,-73.60233000
1.13334656,-75.38634000
1.13372803,-78.99249000
1.13410950,-81.39680000
1.13449097,-77.56745000
1.13487244,-74.78429000
1.13525391,-75.45345000
1.13563538,-76.45563000
1.13601685,-73.56193000
1.13639832,-70.44865000
1.13677979,-70.56458000
1.13716125,-74.71703000
1.13754272,-74.91667000
1.13792419,-71.32224000
1.13830566,-70.59373000
1.13868713,-71.44444000
1.13906860,-74.74364000
1.13945007,-83.64519000
1.13983154,-83.38890000
1.14021301,-78.06064000
1.14059448,-82.41253000
1.14097595,-76.09874000
1.14135742,-74.67345000
1.14173889,-79.45039000
1.14212036,-85.71304000
1.14250183,-82.65498000
1.14288330,-81.19118000
1.14326477,-74.15936000
1.14364624,-70.49677000
1.14402771,-69.20869000
1.14440918,-69.62235000
1.14479065,-71.25130000
1.14517212,-73.84732000
1.14555359,-75.09930000
1.14593506,-71.93711000
1.14631653,-73.02570000
1.14669800,-87.79601000
1.14707947,-75.87978000
1.14746094,-73.11752000
1.14784241,-75.27583000
1.14822388,-77.10592000
1.14860535,-76.94559000
1.14898682,-81.47305000
1.14936829,-83.99562000
1.14974976,-76.80119000
1.15013123,-77.59332000
1.15051270,-80.43021000
1.15089417,-77.78528000
1.15127563,-73.61201000
1.15165710,-72.48488000
1.15203857,-73.51518000
1.15242004,-72.32774000
1.15280151,-69.76820000
1.15318298,-67.82933000
1.15356445,-66.88939000
1.15394592,-67.68141000
1.15432739,-70.86298000
1.15470886,-76.61993000
1.15509033,-83.79182000
1.15547180,-91.57333000
1.15585327,-90.01253000
1.15623474,-83.52408000
1.15661621,-93.89268000
1.15699768,-78.32346000
1.15737915,-74.86464000
1.15776062,-76.00708000
1.15814209,-81.13891000
1.15852356,-91.00046000
1.15890503,-81.83887000
1.15928650,-76.88062000
1.15966797,-77.65234000
1.16004944,-77.99751000
1.16043091,-77.90282000
1.16081238,-78.11987000
1.16119385,-73.72197000
1.16157532,-72.67595000
1.16195679,-76.38885000
1.16233826,-87.98203000
1.16271973,-82.88017000
1.16310120,-80.70979000
1.16348267,-81.36117000
1.16386414,-79.44312000
1.16424561,-74.17097000
1.16462708,-70.26174000
1.16500854,-69.51997000
1.16539001,-72.73247000
1.16577148,-82.95898000
1.16615295,-76.11755000
1.16653442,-72.91489000
1.16691589,-74.03416000
1.16729736,-77.98817000
1.16767883,-91.07649000
1.16806030,-79.70450000
1.16844177,-76.84315000
1.16882324,-82.03190000
1.16920471,-89.24985000
1.16958618,-82.16399000
1.16996765,-80.00744000
1.17034912,-77.41685000
1.17073059,-75.08966000
1.17111206,-75.66543000
1.17149353,-78.57271000
1.17187500,-75.63903000
1.17225647,-73.73405000
1.17263794,-72.03196000
1.17301941,-69.21578000
1.17340088,-67.57188000
1.17378235,-68.20304000
1.17416382,-69.44624000
1.17454529,-70.40658000
1.17492676,-72.87648000
1.17530823,-76.63837000
1.17568970,-76.87875000
1.17607117,-75.95236000
1.17645264,-77.29232000
1.17683411,-80.67715000
1.17721558,-84.62318000
1.17759705,-81.60130000
1.17797852,-75.69596000
1.17835999,-72.65929000
1.17874146,-73.13190000
1.17912292,-75.82908000
1.17950439,-71.95462000
1.17988586,-69.86839000
1.18026733,-72.00022000
1.18064880,-76.42627000
1.18103027,-79.47279000
1.18141174,-84.70321000
1.18179321,-92.21527000
1.18217468,-80.06818000
1.18255615,-74.61874000
1.18293762,-72.27935000
1.18331909,-72.53481000
1.18370056,-76.41940000
1.18408203,-93.33977000
1.18446350,-75.39811000
1.18484497,-73.22448000
1.18522644,-72.84406000
1.18560791,-70.77609000
1.18598938,-70.17762000
1.18637085,-70.01398000
1.18675232,-70.51295000
1.18713379,-73.32873000
1.18751526,-77.54759000
1.18789673,-84.68446000
1.18827820,-82.62170000
1.18865967,-77.29284000
1.18904114,-75.16771000
1.18942261,-76.76955000
1.18980408,-74.79628000
1.19018555,-74.29742000
1.19056702,-77.01005000
1.19094849,-80.28564000
1.19132996,-78.45546000
1.19171143,-75.77312000
1.19209290,-75.76346000
1.19247437,-80.17587000
1.19285583,-77.77257000
1.19323730,-75.32870000
1.19361877,-77.90096000
1.19400024,-84.29742000
1.19438171,-88.66591000
1.19476318,-83.18024000
1.19514465,-78.54059000
1.19552612,-76.12740000
1.19590759,-78.23726000
1.19628906,-73.25687000
1.19667053,-71.52901000
1.19705200,-73.55632000
1.19743347,-76.70012000
1.19781494,-76.94680000
1.19819641,-74.80684000
1.19857788,-73.84689000
1.19895935,-76.61092000
1.19934082,-78.81225000
1.19972229,-78.28210000
1.20010376,-80.84839000
1.20048523,-83.19576000
1.20086670,-78.61976000
1.20124817,-78.48837000
1.20162964,-84.95723000
1.20201111,-94.01665000
1.20239258,-81.38264000
1.20277405,-79.78198000
1.20315552,-85.80157000
1.20353699,-80.39123000
1.20391846,-77.61165000
1.20429993,-76.35807000
1.20468140,-78.51066000
1.20506287,-84.24331000
1.20544434,-76.94913000
1.20582581,-79.81770000
1.20620728,-80.17715000
1.20658875,-70.63231000
1.20697021,-69.01492000
1.20735168,-69.94117000
1.20773315,-71.04321000
1.20811462,-69.52613000
1.20849609,-68.50490000
1.20887756,-70.34721000
1.20925903,-75.65214000
1.20964050,-83.14492000
1.21002197,-78.50594000
1.21040344,-74.29112000
1.21078491,-71.77026000
1.21116638,-72.74368000
1.21154785,-81.44266000
1.21192932,-80.17716000
1.21231079,-72.44188000
1.21269226,-70.13934000
1.21307373,-70.31786000
1.21345520,-75.12204000
1.21383667,-83.44140000
1.21421814,-76.48143000
1.21459961,-74.49772000
1.21498108,-76.55297000
1.21536255,-79.40314000
1.21574402,-78.50612000
1.21612549,-76.49156000
1.21650696,-73.53787000
1.21688843,-71.67952000
1.21726990,-72.86488000
1.21765137,-81.85095000
1.21803284,-78.00754000
1.21841431,-73.58408000
1.21879578,-76.15907000
1.21917725,-78.13312000
1.21955872,-76.72524000
1.21994019,-75.42102000
1.22032166,-78.73192000
1.22070313,-86.06355000
1.22108459,-74.00633000
1.22146606,-70.36185000
1.22184753,-70.51485000
1.22222900,-75.26524000
1.22261047,-79.84264000
1.22299194,-75.90666000
1.22337341,-78.40034000
1.22375488,-86.07915000
1.22413635,-75.09103000
1.22451782,-73.04591000
1.22489929,-75.01796000
1.22528076,-79.07120000
1.22566223,-77.14139000
1.22604370,-75.95790000
1.22642517,-79.03610000
1.22680664,-86.18577000
1.22718811,-87.92764000
1.22756958,-74.83741000
1.22795105,-70.44315000
1.22833252,-70.85391000
1.22871399,-76.29480000
1.22909546,-91.54300000
1.22947693,-79.15693000
1.22985840,-74.05547000
1.23023987,-73.34180000
1.23062134,-75.76898000
1.23100281,-74.72927000
1.23138428,-72.52278000
1.23176575,-70.55570000
1.23214722,-70.79174000
1.23252869,-75.47449000
1.23291016,-74.56194000
1.23329163,-69.39994000
1.23367310,-69.49548000
1.23405457,-77.10311000
1.23443604,-80.86839000
1.23481750,-76.15201000
1.23519897,-79.08231000
1.23558044,-75.92637000
1.23596191,-77.93504000
1.23634338,-84.29517000
1.23672485,-86.25477000
1.23710632,-87.54108000
1.23748779,-86.79597000
1.23786926,-82.90222000
1.23825073,-80.65194000
1.23863220,-81.30194000
1.23901367,-84.21214000
1.23939514,-81.45885000
1.23977661,-77.02976000
1.24015808,-75.18348000
1.24053955,-77.40869000
1.24092102,-85.20591000
1.24130249,-83.81264000
1.24168396,-79.23067000
1.24206543,-75.66210000
1.24244690,-77.80608000
1.24282837,-89.89254000
1.24320984,-85.14977000
1.24359131,-81.69629000
1.24397278,-79.39893000
1.24435425,-78.84750000
1.24473572,-84.55040000
1.24511719,-94.51004000
1.24549866,-85.36075000
1.24588013,-83.79973000
1.24626160,-84.13483000
1.24664307,-78.86442000
1.24702454,-76.78889000
1.24740601,-80.44316000
1.24778748,-89.77341000
1.24816895,-84.49686000
1.24855042,-83.05413000
1.24893188,-83.45241000
1.24931335,-78.37580000
1.24969482,-72.80122000
1.25007629,-70.36838000
1.25045776,-71.16170000
1.25083923,-74.33559000
1.25122070,-78.29935000
1.25160217,-85.93845000
1.25198364,-84.27949000
1.25236511,-83.59569000
1.25274658,-84.16080000
1.25312805,-76.33377000
1.25350952,-72.84699000
1.25389099,-74.09219000
1.25427246,-77.56448000
1.25465393,-77.39622000
1.25503540,-76.55238000
1.25541687,-81.09864000
1.25579834,-106.34360000
1.25617981,-89.74021000
1.25656128,-87.40879000
1.25694275,-79.28030000
1.25732422,-74.79807000
1.25770569,-76.97229000
1.25808716,-90.52252000
1.25846863,-80.32492000
1.25885010,-82.52113000
1.25923157,-88.71284000
1.25961304,-83.92480000
1.25999451,-79.52478000
1.26037598,-77.71255000
1.26075745,-76.80536000
1.26113892,-74.60413000
1.26152039,-72.81468000
1.26190186,-72.11887000
1.26228333,-72.17980000
1.26266479,-73.21255000
1.26304626,-76.13877000
1.26342773,-80.10308000
1.26380920,-80.50434000
1.26419067,-75.92252000
1.26457214,-73.62830000
1.26495361,-76.16078000
1.26533508,-81.19177000
1.26571655,-84.22729000
1.26609802,-81.33022000
1.26647949,-74.18149000
1.26686096,-71.13698000
1.26724243,-70.26125000
1.26762390,-70.62897000
1.26800537,-71.65524000
1.26838684,-75.49368000
1.26876831,-80.71529000
1.26914978,-76.66051000
1.26953125,-76.81361000
1.26991272,-78.77354000
1.27029419,-76.59373000
1.27067566,-75.84436000
1.27105713,-76.88628000
1.27143860,-82.88148000
1.27182007,-83.72211000
1.27220154,-78.56160000
1.27258301,-75.32040000
1.27296448,-72.74507000
1.27334595,-73.47606000
1.27372742,-74.66706000
1.27410889,-73.77034000
1.27449036,-73.39368000
1.27487183,-75.55730000
1.27525330,-82.80938000
1.27563477,-88.36971000
1.27601624,-78.80380000
1.27639771,-79.16697000
1.27677917,-83.23437000
1.27716064,-84.59774000
1.27754211,-84.63948000
1.27792358,-85.74352000
1.27830505,-84.72322000
1.27868652,-79.80212000
1.27906799,-78.94020000
1.27944946,-77.21831000
1.27983093,-74.79882000
1.28021240,-74.52506000
1.28059387,-74.49442000
1.28097534,-74.52852000
1.28135681,-75.88161000
1.28173828,-75.00300000
1.28211975,-71.71957000
1.28250122,-69.96220000
1.28288269,-69.52377000
1.28326416,-69.82509000
1.28364563,-70.81119000
1.28402710,-73.76918000
1.28440857,-79.98239000
1.28479004,-92.95101000
1.28517151,-80.25929000
1.28555298,-72.48891000
1.28593445,-71.22542000
1.28631592,-76.55810000
1.28669739,-72.70657000
1.28707886,-67.00146000
1.28746033,-66.16813000
1.28784180,-68.36602000
1.28822327,-71.88066000
1.28860474,-75.66817000
1.28898621,-91.32035000
1.28936768,-77.14949000
1.28974915,-74.50894000
1.29013062,-73.98151000
1.29051208,-72.53712000
1.29089355,-74.11797000
1.29127502,-78.46460000
1.29165649,-74.46271000
1.29203796,-74.09722000
1.29241943,-82.20112000
1.29280090,-85.74500000
1.29318237,-85.32532000
1.29356384,-79.68675000
1.29394531,-74.64400000
1.29432678,-74.19366000
1.29470825,-75.69510000
1.29508972,-82.14435000
1.29547119,-90.04053000
1.29585266,-84.99944000
1.29623413,-86.52640000
1.29661560,-80.72800000
1.29699707,-73.88361000
1.29737854,-71.83912000
1.29776001,-71.29221000
1.29814148,-69.62730000
1.29852295,-68.64836000
1.29890442,-69.05736000
1.29928589,-70.68718000
1.29966736,-73.89523000
1.30004883,-82.77661000
1.30043030,-75.43349000
1.30081177,-70.12620000
1.30119324,-70.05612000
1.30157471,-73.84466000
1.30195618,-79.76165000
1.30233765,-92.40253000
1.30271912,-77.18649000
1.30310059,-73.77585000
1.30348206,-74.01247000
1.30386353,-74.42748000
1.30424500,-72.97678000
1.30462646,-71.55624000
1.30500793,-71.90002000
1.30538940,-74.31253000
1.30577087,-77.17085000
1.30615234,-77.65087000
1.30653381,-77.24298000
1.30691528,-79.51601000
1.30729675,-78.85661000
1.30767822,-77.81007000
1.30805969,-78.42944000
1.30844116,-77.66940000
1.30882263,-76.69228000
1.30920410,-74.85857000
1.30958557,-72.67419000
1.30996704,-72.37048000
1.31034851,-74.63625000
1.31072998,-77.95470000
1.31111145,-74.94805000
1.31149292,-75.09500000
1.31187439,-80.45800000
1.31225586,-80.56767000
1.31263733,-78.31208000
1.31301880,-79.27839000
1.31340027,-76.16383000
1.31378174,-72.44880000
1.31416321,-71.66322000
1.31454468,-74.91096000
1.31492615,-88.57413000
1.31530762,-80.47447000
1.31568909,-82.53564000
1.31607056,-98.31948000
1.31645203,-84.20467000
1.31683350,-81.16655000
1.31721497,-76.69438000
1.31759644,-72.92856000
1.31797791,-73.68551000
1.31835938,-78.32090000
1.31874084,-78.34306000
1.31912231,-75.74107000
1.31950378,-76.33973000
1.31988525,-72.08583000
1.32026672,-69.52572000
1.32064819,-70.98740000
1.32102966,-73.93602000
1.32141113,-74.29277000
1.32179260,-73.43544000
1.32217407,-75.76725000
1.32255554,-83.95705000
1.32293701,-91.67358000
1.32331848,-91.27077000
1.32369995,-88.35237000
1.32408142,-88.31261000
1.32446289,-78.34604000
1.32484436,-71.48067000
1.32522583,-69.70251000
1.32560730,-70.10646000
1.32598877,-70.96802000
1.32637024,-72.91007000
1.32675171,-76.37189000
1.32713318,-77.93630000
1.32751465,-72.90938000
1.32789612,-71.50861000
1.32827759,-72.98396000
1.32865906,-75.75950000
1.32904053,-77.30544000
1.32942200,-78.27193000
1.32980347,-81.55297000
1.33018494,-79.60965000
1.33056641,-74.82404000
1.33094788,-72.29661000
1.33132935,-72.13326000
1.33171082,-72.86824000
1.33209229,-73.40572000
1.33247375,-79.44590000
1.33285522,-78.73836000
1.33323669,-74.07372000
1.33361816,-75.75746000
1.33399963,-72.52243000
1.33438110,-71.38266000
1.33476257,-73.15842000
1.33514404,-74.58897000
1.33552551,-74.32565000
1.33590698,-76.14388000
1.33628845,-86.84010000
1.33666992,-81.06629000
1.33705139,-75.67283000
1.33743286,-76.41064000
1.33781433,-80.07652000
1.33819580,-81.65912000
1.33857727,-78.40025000
1.33895874,-76.95990000
1.33934021,-77.71407000
1.33972168,-77.25718000
1.34010315,-75.78306000
1.34048462,-76.07520000
1.34086609,-71.78387000
1.34124756,-70.85528000
1.34162903,-71.92191000
1.34201050,-73.58267000
1.34239197,-78.75818000
1.34277344,-85.90649000
1.34315491,-81.23054000
1.34353638,-77.73540000
1.34391785,-76.37366000
1.34429932,-82.59121000
1.34468079,-76.46519000
1.34506226,-70.94592000
1.34544373,-71.79537000
1.34582520,-76.59894000
1.34620667,-80.47088000
1.34658813,-78.22015000
1.34696960,-77.57326000
1.34735107,-78.07886000
1.34773254,-76.21046000
1.34811401,-75.19627000
1.34849548,-74.25128000
1.34887695,-72.83899000
1.34925842,-77.12283000
1.34963989,-85.62657000
1.35002136,-75.00138000
1.35040283,-73.73269000
1.35078430,-76.44116000
1.35116577,-77.23975000
1.35154724,-74.14487000
1.35192871,-71.79773000
1.35231018,-70.60027000
1.35269165,-71.26468000
1.35307312,-73.94971000
1.35345459,-76.26754000
1.35383606,-78.85805000
1.35421753,-79.89439000
1.35459900,-75.53303000
1.35498047,-77.48764000
1.35536194,-80.16730000
1.35574341,-78.63636000
1.35612488,-79.22084000
1.35650635,-80.28180000
1.35688782,-79.53006000
1.35726929,-85.45030000
1.35765076,-94.60529000
1.35803223,-91.71372000
1.35841370,-84.23270000
1.35879517,-75.76254000
1.35917664,-72.47047000
1.35955811,-72.41415000
1.35993958,-75.86845000
1.36032104,-78.26455000
1.36070251,-75.05878000
1.36108398,-73.80333000
1.36146545,-75.82346000
1.36184692,-74.06619000
1.36222839,-72.81619000
1.36260986,-75.35425000
1.36299133,-82.11983000
1.36337280,-77.56558000
1.36375427,-73.88789000
1.36413574,-75.65805000
1.36451721,-91.42268000
1.36489868,-80.89577000
1.36528015,-77.72892000
1.36566162,-76.80608000
1.36604309,-75.83100000
1.36642456,-75.24014000
1.36680603,-77.26424000
1.36718750,-86.93671000
1.36756897,-84.75060000
1.36795044,-79.17506000
1.36833191,-80.92398000
1.36871338,-83.44325000
1.36909485,-80.29929000
1.36947632,-80.66739000
1.36985779,-81.06223000
1.37023926,-79.19450000
1.37062073,-77.38493000
1.37100220,-74.71078000
1.37138367,-71.49977000
1.37176514,-72.48206000
1.37214661,-75.60634000
1.37252808,-72.10490000
1.37290955,-72.43678000
1.37329102,-74.38996000
1.37367249,-75.05470000
1.37405396,-75.91850000
1.37443542,-74.60771000
1.37481689,-75.78604000
1.37519836,-83.25540000
1.37557983,-81.66826000
1.37596130,-74.47386000
1.37634277,-75.60033000
1.37672424,-85.40478000
1.37710571,-82.62565000
1.37748718,-90.28522000
1.37786865,-78.34048000
1.37825012,-72.75260000
1.37863159,-71.83669000
1.37901306,-73.63107000
1.37939453,-75.38699000
1.37977600,-73.77947000
1.38015747,-76.20944000
1.38053894,-85.14732000
1.38092041,-76.92890000
1.38130188,-76.76517000
1.38168335,-81.80338000
1.38206482,-78.15759000
1.38244629,-72.16602000
1.38282776,-69.31878000
1.38320923,-69.12710000
1.38359070,-72.85855000
1.38397217,-85.33250000
1.38435364,-94.32517000
1.38473511,-86.90869000
1.38511658,-81.54967000
1.38549805,-83.47512000
1.38587952,-75.85109000
1.38626099,-71.82684000
1.38664246,-71.36230000
1.38702393,-74.16681000
1.38740540,-80.38766000
1.38778687,-76.30861000
1.38816833,-74.64291000
1.38854980,-75.36214000
1.38893127,-73.20842000
1.38931274,-69.68232000
1.38969421,-67.97027000
1.39007568,-68.86382000
1.39045715,-73.01884000
1.39083862,-80.84026000
1.39122009,-84.79088000
1.39160156,-88.23563000
1.39198303,-79.94460000
1.39236450,-72.86954000
1.39274597,-71.06274000
1.39312744,-70.66467000
1.39350891,-70.41764000
1.39389038,-71.39312000
1.39427185,-71.31947000
1.39465332,-70.26640000
1.39503479,-72.11589000
1.39541626,-77.71960000
1.39579773,-78.78841000
1.39617920,-76.47551000
1.39656067,-72.95020000
1.39694214,-73.60877000
1.39732361,-79.52136000
1.39770508,-90.74159000
1.39808655,-85.38454000
1.39846802,-78.76300000
1.39884949,-76.89705000
1.39923096,-77.91028000
1.39961243,-82.71015000
1.39999390,-75.70525000
1.40037537,-71.19078000
1.40075684,-70.84408000
1.40113831,-74.29708000
1.40151978,-74.36745000
1.40190125,-71.45852000
1.40228271,-72.13320000
1.40266418,-71.51346000
1.40304565,-71.14793000
1.40342712,-73.53175000
1.40380859,-76.48273000
1.40419006,-76.90060000
1.40457153,-78.56164000
1.40495300,-85.44424000
1.40533447,-88.96581000
1.40571594,-86.84258000
1.40609741,-83.59847000
1.40647888,-79.58154000
1.40686035,-76.21808000
1.40724182,-76.47093000
1.40762329,-78.21465000
1.40800476,-74.40225000
1.40838623,-72.94223000
1.40876770,-71.41305000
1.40914917,-72.33422000
1.40953064,-81.89764000
1.40991211,-77.13135000
1.41029358,-71.16756000
1.41067505,-71.14399000
1.41105652,-77.38577000
1.41143799,-87.01233000
1.41181946,-77.01505000
1.41220093,-74.11079000
1.41258240,-72.46081000
1.41296387,-72.83063000
1.41334534,-71.84125000
1.41372681,-69.35140000
1.41410828,-68.05716000
1.41448975,-68.37918000
1.41487122,-69.57736000
1.41525269,-71.72319000
1.41563416,-78.33882000
1.41601563,-79.13676000
1.41639709,-75.60454000
1.41677856,-75.80850000
1.41716003,-76.75462000
1.41754150,-85.61410000
1.41792297,-82.50342000
1.41830444,-77.78039000
1.41868591,-81.79870000
1.41906738,-79.09631000
1.41944885,-75.63056000
1.41983032,-76.89297000
1.42021179,-76.24051000
1.42059326,-73.76104000
1.42097473,-72.32804000
1.42135620,-72.84801000
1.42173767,-77.17415000
1.42211914,-78.52959000
1.42250061,-74.80673000
1.42288208,-76.03342000
1.42326355,-77.85283000
1.42364502,-77.01562000
1.42402649,-76.08705000
1.42440796,-76.37325000
1.42478943,-77.16898000
1.42517090,-77.82291000
1.42555237,-79.17939000
1.42593384,-74.66909000
1.42631531,-69.73216000
1.42669678,-68.56134000
1.42707825,-72.18980000
1.42745972,-81.82007000
1.42784119,-78.37206000
1.42822266,-77.29536000
1.42860413,-76.38899000
1.42898560,-78.20242000
1.42936707,-78.68285000
1.42974854,-79.16392000
1.43013000,-79.89603000
1.43051147,-73.43024000
1.43089294,-71.54688000
1.43127441,-73.50158000
1.43165588,-78.71968000
1.43203735,-91.53367000
1.43241882,-81.55315000
1.43280029,-80.13043000
1.43318176,-83.24736000
1.43356323,-80.17844000
1.43394470,-77.50994000
1.43432617,-73.91053000
1.43470764,-70.40398000
1.43508911,-70.27589000
1.43547058,-75.16053000
1.43585205,-86.12029000
1.43623352,-79.45135000
1.43661499,-80.57022000
1.43699646,-91.22705000
1.43737793,-83.63870000
1.43775940,-78.17103000
1.43814087,-77.14434000
1.43852234,-73.44016000
1.43890381,-72.92017000
1.43928528,-75.33767000
1.43966675,-71.68935000
1.44004822,-70.83114000
1.44042969,-73.69105000
1.44081116,-78.77469000
1.44119263,-80.81043000
1.44157410,-75.79977000
1.44195557,-77.15447000
1.44233704,-79.12231000
1.44271851,-77.94910000
1.44309998,-75.86724000
1.44348145,-75.99722000
1.44386292,-76.59818000
1.44424438,-76.81071000
1.44462585,-75.80224000
1.44500732,-76.00085000
1.44538879,-79.61949000
1.44577026,-89.87664000
1.44615173,-92.34868000
1.44653320,-87.88551000
1.44691467,-76.29173000
1.44729614,-69.86861000
1.44767761,-68.20100000
1.44805908,-69.50210000
1.44844055,-71.75549000
1.44882202,-76.56323000
1.44920349,-95.59589000
1.44958496,-81.93839000
1.44996643,-80.69904000
1.45034790,-83.39539000
1.45072937,-82.27191000
1.45111084,-76.32854000
1.45149231,-75.98769000
1.45187378,-82.74108000
1.45225525,-81.61304000
1.45263672,-80.12185000
1.45301819,-87.22083000
1.45339966,-75.39813000
1.45378113,-73.67965000
1.45416260,-82.03142000
1.45454407,-75.44065000
1.45492554,-70.14454000
1.45530701,-70.72995000
1.45568848,-73.80479000
1.45606995,-74.84470000
1.45645142,-75.23662000
1.45683289,-77.36423000
1.45721436,-77.89954000
1.45759583,-74.78839000
1.45797729,-72.42204000
1.45835876,-73.99423000
1.45874023,-79.77243000
1.45912170,-71.98625000
1.45950317,-70.04325000
1.45988464,-73.47659000
1.46026611,-78.39190000
1.46064758,-76.68600000
1.46102905,-79.78455000
1.46141052,-82.72651000
1.46179199,-74.63752000
1.46217346,-72.56953000
1.46255493,-70.90846000
1.46293640,-69.55884000
1.46331787,-69.22381000
1.46369934,-69.33578000
1.46408081,-70.12286000
1.46446228,-72.26493000
1.46484375,-74.34318000
1.46522522,-74.36064000
1.46560669,-75.82336000
1.46598816,-86.67107000
1.46636963,-75.85421000
1.46675110,-73.21819000
1.46713257,-76.37175000
1.46751404,-81.85341000
1.46789551,-83.00252000
1.46827698,-79.02872000
1.46865845,-77.42085000
1.46903992,-80.33520000
1.46942139,-77.87330000
1.46980286,-75.06963000
1.47018433,-78.83891000
1.47056580,-85.05360000
1.47094727,-74.77306000
1.47132874,-75.76495000
1.47171021,-83.18429000
1.47209167,-80.11021000
1.47247314,-77.80198000
1.47285461,-75.09796000
1.47323608,-72.59404000
1.47361755,-71.31140000
1.47399902,-70.83461000
1.47438049,-72.04559000
1.47476196,-75.51619000
1.47514343,-77.02012000
1.47552490,-78.67040000
1.47590637,-80.81422000
1.47628784,-83.63030000
1.47666931,-87.22424000
1.47705078,-76.19009000
1.47743225,-71.76528000
1.47781372,-70.36940000
1.47819519,-71.38593000
1.47857666,-74.83006000
1.47895813,-83.56445000
1.47933960,-75.52187000
1.47972107,-70.61374000
1.48010254,-70.85789000
1.48048401,-75.28616000
1.48086548,-79.22958000
1.48124695,-79.34930000
1.48162842,-76.68598000
1.48200989,-73.90120000
1.48239136,-72.24801000
1.48277283,-72.79446000
1.48315430,-79.76353000
1.48353577,-79.97215000
1.48391724,-73.91969000
1.48429871,-71.61890000
1.48468018,-70.59122000
1.48506165,-73.33334000
1.48544312,-80.77392000
1.48582458,-75.62505000
1.48620605,-73.77120000
1.48658752,-74.36221000
1.48696899,-75.13255000
1.48735046,-76.72285000
1.48773193,-79.81712000
1.48811340,-82.18768000
1.48849487,-83.12914000
1.48887634,-75.82455000
1.48925781,-73.60365000
1.48963928,-71.53113000
1.49002075,-70.34420000
1.49040222,-71.23555000
1.49078369,-74.01419000
1.49116516,-77.75005000
1.49154663,-78.13241000
1.49192810,-80.60172000
1.49230957,-86.24792000
1.49269104,-83.53458000
1.49307251,-84.57569000
1.49345398,-98.49545000
1.49383545,-81.84513000
1.49421692,-78.52946000
1.49459839,-78.57738000
1.49497986,-74.63626000
1.49536133,-70.97888000
1.49574280,-70.92202000
1.49612427,-73.12944000
1.49650574,-76.43542000
1.49688721,-83.28850000
1.49726868,-85.95180000
1.49765015,-83.40930000
1.49803162,-74.88995000
1.49841309,-75.21025000
1.49879456,-76.46158000
1.49917603,-75.17775000
1.49955750,-77.27199000
1.49993896,-80.54919000
1.50032043,-75.93062000
1.50070190,-76.88670000
1.50108337,-80.36070000
1.50146484,-76.27095000
1.50184631,-76.19877000
1.50222778,-81.22876000
1.50260925,-89.32305000
1.50299072,-77.44424000
1.50337219,-69.61593000
1.50375366,-67.22731000
1.50413513,-68.51960000
1.50451660,-71.88830000
1.50489807,-76.06400000
1.50527954,-85.59872000
1.50566101,-85.55940000
1.50604248,-77.20054000
1.50642395,-76.00157000
1.50680542,-81.91882000
1.50718689,-98.01220000
1.50756836,-88.59681000
1.50794983,-77.76762000
1.50833130,-74.05130000
1.50871277,-73.20932000
1.50909424,-72.49497000
1.50947571,-72.03782000
1.50985718,-72.78501000
1.51023865,-73.04189000
1.51062012,-70.21159000
1.51100159,-68.32317000
1.51138306,-69.49926000
1.51176453,-73.81913000
1.51214600,-82.00580000
1.51252747,-92.93084000
1.51290894,-85.27706000
1.51329041,-82.90785000
1.51367188,-76.31021000
1.51405334,-75.68285000
1.51443481,-76.96861000
1.51481628,-75.05434000
1.51519775,-76.57712000
1.51557922,-76.96983000
1.51596069,-76.76093000
1.51634216,-79.03932000
1.51672363,-82.95389000
1.51710510,-83.31158000
1.51748657,-82.59678000
1.51786804,-81.88007000
1.51824951,-78.06645000
1.51863098,-76.21680000
1.51901245,-77.46940000
1.51939392,-78.81572000
1.51977539,-79.52259000
1.52015686,-77.94383000
1.52053833,-74.20813000
1.52091980,-72.10740000
1.52130127,-73.25885000
1.52168274,-80.87638000
1.52206421,-82.34550000
1.52244568,-75.85629000
1.52282715,-75.63602000
1.52320862,-78.80177000
1.52359009,-88.54594000
1.52397156,-78.69679000
1.52435303,-75.37782000
1.52473450,-74.77295000
1.52511597,-73.34090000
1.52549744,-71.47224000
1.52587891,-70.36749000
1.52626038,-69.68373000
1.52664185,-69.82056000
1.52702332,-71.27306000
1.52740479,-72.34868000
1.52778625,-73.35132000
1.52816772,-75.49575000
1.52854919,-77.04134000
1.52893066,-80.35050000
1.52931213,-91.35709000
1.52969360,-75.31197000
1.53007507,-73.00562000
1.53045654,-73.64419000
1.53083801,-73.68576000
1.53121948,-75.20078000
1.53160095,-89.02096000
1.53198242,-76.61285000
1.53236389,-74.29073000
1.53274536,-82.23954000
1.53312683,-82.07977000
1.53350830,-75.31832000
1.53388977,-74.07568000
1.53427124,-74.75423000
1.53465271,-79.87994000
1.53503418,-84.61806000
1.53541565,-74.67258000
1.53579712,-72.36113000
1.53617859,-72.37705000
1.53656006,-74.22039000
1.53694153,-77.01723000
1.53732300,-79.65436000
1.53770447,-94.68391000
1.53808594,-77.92281000
1.53846741,-76.18851000
1.53884888,-83.03600000
1.53923035,-84.41290000
1.53961182,-79.50771000
1.53999329,-77.30186000
1.54037476,-76.00397000
1.54075623,-73.40046000
1.54113770,-73.62017000
1.54151917,-80.87159000
1.54190063,-77.35823000
1.54228210,-73.45103000
1.54266357,-74.37273000
1.54304504,-78.23885000
1.54342651,-86.15356000
1.54380798,-90.87129000
1.54418945,-92.06101000
1.54457092,-83.77228000
1.54495239,-84.63834000
1.54533386,-80.82482000
1.54571533,-76.25269000
1.54609680,-73.90804000
1.54647827,-71.86938000
1.54685974,-70.96770000
1.54724121,-71.68761000
1.54762268,-73.71988000
1.54800415,-76.26395000
1.54838562,-77.04797000
1.54876709,-74.30285000
1.54914856,-72.26740000
1.54953003,-73.32261000
1.54991150,-80.09076000
1.55029297,-86.84807000
1.55067444,-76.64110000
1.55105591,-72.66404000
1.55143738,-71.75130000
1.55181885,-73.95307000
1.55220032,-71.19796000
1.55258179,-70.19016000
1.55296326,-74.05152000
1.55334473,-81.15710000
1.55372620,-85.68539000
1.55410767,-91.07018000
1.55448914,-77.50006000
1.55487061,-75.68245000
1.55525208,-78.61652000
1.55563354,-78.12920000
1.55601501,-74.17188000
1.55639648,-72.45501000
1.55677795,-74.17637000
1.55715942,-78.97819000
1.55754089,-84.05994000
1.55792236,-77.50352000
1.55830383,-72.98866000
1.55868530,-72.04123000
1.55906677,-72.87646000
1.55944824,-76.12880000
1.55982971,-87.28279000
1.56021118,-75.37995000
1.56059265,-72.39701000
1.56097412,-74.29707000
1.56135559,-76.78741000
1.56173706,-72.43360000
1.56211853,-71.05006000
